 # HCl ZPE restriction,  Energy (cm-1), speed (m/s)
 #Water ZPE (DMC): 4713.0629051, HWW ZPE (DMC): 12528.93462455
 #E_given = DMC ZPE + 3550 =21233.1103893624.
 #Dvib = Evib - ZPE
 #D0 = E_given - Erot(W) - Erot(HWW) - Evib(W) + Evib(HWW) - E_COM,E_COM=0
 
       #Erot(W)     #Erot(HWW)       #Dvib(W)     #Dvib(HWW)             D0         #Speed
          74.59          12.77         757.62         834.30        1870.67         601.06
         950.03         219.62        1117.32        -764.30        2027.28         597.62
         535.73         250.95        1493.51       -1301.64        2571.41         770.13
         257.98         132.36         182.41        1008.08        1969.14         265.76
         283.31          97.04         120.01        -230.87        3280.50         691.26
         159.29         192.33        1592.39        -746.48        2352.43         719.64
         334.71         153.21         228.68         424.94        2408.44         582.72
         189.69           1.17        1922.93        -962.52        2398.68         436.36
          76.66          44.98         798.58        -519.27        3149.00         564.75
         522.75         112.53        4009.37       -2690.08        1595.38         483.66
         638.54          77.33        1278.30       -1527.52        3083.32         479.58
          50.86         101.53         216.62        1654.16        1526.80         444.42
         138.55         120.70        1206.99         357.32        1726.39         447.50
         246.58         109.81        2392.61       -2135.08        2936.05         429.14
         137.93          78.71        2103.20        -941.51        2171.61         471.06
          33.43          30.81         471.97          54.83        2958.92         672.58
          77.61          45.18        1930.41        -369.04        1865.79         699.71
          81.63          11.05         311.56        -210.88        3356.61         702.92
         236.70          15.45         330.25         645.51        2322.05         343.74
         324.93          42.79         621.58         456.47        2104.18         451.21
         917.88           7.36         982.96       -1151.52        2793.27         404.13
         440.02         567.16         899.57         297.78        1345.42         530.01
         255.38         595.28         434.48        -898.60        3163.41         435.07
         470.41          55.08         388.09         371.21        2265.17         541.30
          31.66          40.67         156.71        1631.23        1689.70         312.81
         270.25         114.12        2289.08        -953.26        1829.76         512.14
         279.19          82.40        2305.00       -1881.18        2764.54         676.73
         318.30           1.36        2167.78        -532.57        1595.09         392.91
         297.38          30.43        2167.85        -658.41        1712.73         190.28
          98.27          16.27         447.53         828.43        2159.47         718.41
         126.11         348.74        3092.87       -2720.82        2703.04        1114.45
         526.09         151.13         448.15        -369.11        2793.69         268.27
         370.86          66.69          10.98         245.76        2855.67         226.41
         280.26          62.90        2215.54        -840.22        1831.46         558.87
         316.92         129.11         807.98        -228.53        2524.48         478.53
         339.51          62.14         678.24         146.88        2323.20         756.72
         815.22          20.26          29.77        -446.36        3131.04        1138.41
         323.10          68.97         243.50         650.95        2263.43         472.04
         245.33         415.83         736.32        -213.93        2366.41         454.61
         794.05           8.83        3670.17       -3483.73        2560.65         320.87
         383.95         282.65        1592.03       -1006.35        2297.70         771.76
         293.39         123.60        3932.33       -3319.69        2520.35         434.66
          28.18         204.10        1426.51       -1038.36        2929.52         590.01
          14.65         184.11        2958.68       -2443.82        2836.33         412.66
          84.04         136.88         758.75         832.84        1737.47         403.48
         949.71          30.94        2932.38       -2219.17        1856.10         480.17
         416.73          88.19         193.70         904.27        1947.07         418.05
         207.09          15.02         203.25         654.25        2470.36         288.43
          19.75          26.92         788.53         624.14        2090.60         342.36
         209.73          10.46         161.52        1722.68        1445.57         354.16
         182.42         201.10         902.13        -923.57        3187.87         764.79
         257.90         322.25        1425.65       -1046.96        2591.11         605.75
         129.08          23.51        1818.30       -1166.61        2745.70         348.22
         100.62           9.76        2298.72       -1728.67        2869.53         341.83
         326.25          61.25         266.22         545.73        2350.51         446.76
         509.04         119.39        3506.71       -2699.59        2114.41         318.90
        1203.37         215.30         454.62        -136.71        1813.39         487.51
         176.36           4.55        3143.71       -1693.09        1918.41         454.18
         457.12          17.76         531.61         615.85        1927.64         508.19
         455.57         151.44        4467.67       -4130.93        2606.21         343.23
         877.78          53.74        2235.98       -2214.95        2597.43         209.97
         455.62          40.55        1795.56       -1898.00        3156.21         396.22
         282.05         116.66        1373.69         381.70        1395.86         436.61
         712.09          66.65        2334.27       -1487.22        1924.16         637.22
          55.47         788.50        2264.29       -2996.44        3438.13         903.78
         388.79          88.49         219.02          54.32        2799.36         555.96
         149.42         171.56        1482.60         -47.66        1794.03         558.41
          32.23         210.67         402.94         984.70        1919.42         613.32
         141.76          40.87        2496.33       -2780.75        3651.74        1445.53
          98.72          32.33         685.09         766.12        1967.70         260.52
         181.95         197.23         932.77         342.22        1895.77         520.37
         252.16          76.66        1157.74        -509.70        2573.10         227.20
         530.68          71.15        1155.02        -434.67        2227.77         441.22
         211.22         220.23          35.78         400.89        2681.84         779.19
         166.76         111.86         475.41         407.00        2388.92         436.46
         249.18          86.46         388.49         424.86        2400.97         630.57
         262.32          90.30        1379.45        -646.49        2464.36         433.21
           7.94          45.32         895.53         514.95        2086.23         297.36
         189.68           9.28        2948.79       -1334.58        1736.79         342.33
         209.81         140.10         333.18         109.48        2757.39         289.50
         152.12         403.25         166.06         740.20        2088.31         711.62
         210.96         224.33        2790.04       -1818.65        2143.27         530.84
         149.25          34.07         328.97        1029.98        2007.70         524.53
         208.67          28.75        1425.79        -513.93        2400.69         686.80
         380.26         141.39         237.60         509.74        2280.98         609.77
         261.11          87.21        2112.75       -1370.44        2459.32         346.70
          20.23          52.19         700.93          19.75        2756.86         556.90
         234.79           0.53         124.05        1927.74        1262.85         297.25
         273.16         138.74        1381.38        -820.59        2577.27         598.13
         891.95          20.15         696.82       -1006.82        2947.87         168.15
         732.46          48.63        1161.02          77.10        1530.76         504.07
          40.04          28.84         257.02         720.75        2503.31         533.72
         101.55         103.31        1195.19        -356.60        2506.52         664.88
         182.12          13.98          61.72        1356.81        1935.34         562.93
         411.57         134.77        1926.21       -1575.08        2652.50         236.08
         475.04         909.30         791.33        -515.76        1890.06         915.40
         998.83          75.22        1115.87       -1379.14        2739.17         170.49
         290.81           5.10         265.18         916.65        2072.21         670.32
         761.47          55.69        3028.71       -3268.47        2972.55         362.69
         235.39         267.42         912.73        -764.00        2898.43         448.20
          89.15         654.61        1497.58        -720.86        2029.47         658.25
         235.66         256.24         784.45         345.19        1928.43         423.03
         136.67          63.74        1802.29        -254.36        1801.63         151.73
          52.47         235.19         137.26         272.65        2852.37         269.65
          85.10          95.86         264.51         104.16        3000.32         740.26
          86.29          32.73         392.81         894.09        2144.03        1017.89
         365.01          22.86         905.62        -663.08        2919.56         189.79
          10.82         205.95        2078.10       -1380.31        2635.41         668.76
         491.85          59.15        1051.86        -205.86        2152.97         774.23
         420.43         112.93        2989.16       -3117.57        3145.00         616.71
         287.36         160.95        1195.00          53.57        1853.09         227.00
         473.94          82.63        1965.40       -2240.76        3268.76         805.13
         384.00          68.48        1115.39        -903.96        2886.06         944.17
         105.32         357.12         306.22         537.31        2243.99         540.91
         397.59          95.88         384.48        -555.50        3227.50         847.41
        1030.71         564.64        1463.21       -2620.00        3111.40         621.85
         465.45          45.59        1398.30        -344.74        1985.36         394.27
         615.30         101.44        6280.15       -5595.91        2148.96         336.15
         396.82         112.34        1464.02        -954.66        2531.44         316.39
        1017.08          64.21         564.56         277.94        1626.18         315.55
         233.48         151.75         618.02         618.71        1927.99         342.03
         241.50          14.53         393.17        1194.27        1706.48         251.88
         263.23          51.14        1355.61       -1050.84        2930.83         474.45
         546.57         154.44        1929.96       -1011.44        1930.41         344.33
         446.08         108.72        2092.04       -1286.00        2189.13         719.98
         317.34          58.50        2257.65       -1154.98        2071.43         479.63
         135.24         180.99        2547.64       -1190.30        1876.38         614.78
         418.33         208.25         510.20        -427.90        2841.09         369.89
          99.75         341.12          84.69          36.08        2988.31         396.52
         368.15           3.16        1477.45         -41.99        1743.16         410.16
         133.95         113.26        3672.35       -2593.05        2223.45         565.00
        1053.72         158.54         177.64        -558.28        2718.34         877.58
          22.20         378.11          35.25        1526.57        1587.82         552.94
         514.84         104.25         882.45       -1457.33        3505.76         831.36
         158.59          78.57        2969.84       -1511.86        1854.80         367.44
        1010.40          86.14        3120.37       -3607.19        2940.25         325.27
          68.90          89.33        1500.33       -1315.17        3206.58         560.01
         393.94         524.35         281.28         401.14        1949.27         676.96
         356.34          37.81         634.36         183.88        2337.58         557.20
         403.61           4.22         379.45        1304.15        1458.53         242.66
         336.14         158.30        2335.87       -2095.84        2815.50         232.43
         199.57          52.41         110.48         488.83        2698.66        1082.03
         200.40         126.81        1055.67       -1092.05        3259.14         589.21
         130.78         101.73         945.22        -799.78        3172.01         594.24
         146.06         107.87         313.96        1164.04        1818.03         220.33
         180.23         435.18        1891.54        -809.67        1852.70         637.40
        1181.88          56.10        3495.91       -3207.75        2023.82         429.99
          49.30          73.33         621.13         770.72        2035.49         162.82
         301.94          29.39        1259.44        -542.56        2501.77         495.56
         291.62         190.68          40.61        -101.65        3128.69         557.06
         372.42         473.68         668.64        -334.08        2369.29         583.02
          98.35          14.80         913.43          55.51        2467.90         495.65
         393.26         205.33         143.21         832.31        1975.84         185.55
         621.06          15.14        1167.17         177.45        1569.13         467.51
         260.07          60.97         811.17        -522.98        2940.74         518.03
         477.38         272.04          38.21        1485.15        1277.18         547.79
         200.07          28.71        1986.03       -1156.49        2491.64         266.10
          90.32          80.26         433.51         877.96        2067.91         420.66
         171.39          89.37         860.47         641.52        1787.21         398.25
         190.41          98.38         210.02        1543.80        1507.35         411.99
         139.47         286.49         879.43        -247.77        2492.35         414.48
         186.39         144.49         811.86         173.56        2233.68         636.57
          81.12          67.29        1860.36       -1083.15        2624.34         527.77
         495.90          73.73        2871.87       -1574.12        1682.59         666.35
         242.75          25.96        2247.83       -1170.60        2204.03         443.96
          52.45          55.29        2581.74       -1118.42        1978.90         561.88
         278.51         121.29        1129.41        -969.66        2990.40         525.47
         119.67         137.53          37.11        1408.00        1847.67         821.07
         320.53         493.05        1448.26       -1595.99        2884.12         436.72
         226.23          74.45          42.06         608.42        2598.79         433.64
         293.91           7.05         558.52        -454.06        3144.53         505.05
          17.16          70.05        1511.36        -169.61        2121.00         641.85
         145.38          76.27          80.19         701.17        2546.96         638.48
         601.12          18.51        2199.85       -1060.58        1791.07         108.69
          72.40          29.60         425.75         633.77        2388.44         685.76
         535.02           5.50        1341.56        -437.68        2105.55         717.88
          72.07          72.18        4775.80       -3728.69        2358.61         217.48
         281.24          33.27         852.37        -261.45        2644.54         851.90
        1244.10          23.64        3507.25       -3146.48        1921.45         452.83
         366.99          11.39        2510.96       -2223.47        2884.10         256.19
         480.69          47.86        3097.53       -3147.48        3071.35        1152.58
         318.30          83.65        1613.58       -2109.81        3644.26         658.15
         131.93           4.05        2552.93       -1490.92        2351.98         280.57
         423.45         373.03        1231.22        -766.46        2288.72         679.60
         188.06          21.94        1196.52        -574.44        2717.86         552.97
          65.56          57.21         158.54        1416.32        1852.34         355.81
         212.30         420.68        2395.16       -2322.14        2843.95         457.90
         217.22         121.67        1111.67        -812.48        2911.88         249.04
         382.19         213.25        1314.00        -226.55        1867.07         502.37
         180.61          33.48        1825.64        -551.47        2061.70         284.79
         522.43         294.47         953.39       -1194.04        2973.71         622.76
         109.40          25.43          57.92         931.57        2425.66         555.55
         796.93          61.85        2291.30       -2740.16        3140.05         561.58
         153.58         401.99         849.20         622.44        1522.75         221.91
         758.32          98.24        2288.32       -1843.70        2248.77         473.80
          71.15          23.10         664.16         286.01        2505.53         583.06
         336.83         242.20        1446.48        -959.52        2483.98         523.79
         506.97         183.03         487.38        -617.43        2990.00         390.22
         575.77         214.24         720.40       -1025.39        3064.93         630.71
         252.45           8.95        2600.10       -1581.82        2270.27         309.16
         193.95          29.82         733.11         357.30        2235.77         215.61
         438.74          76.13        2765.69       -2094.14        2363.54         504.63
         423.61          50.18        1789.47        -904.17        2190.88         383.24
          74.88          81.23         377.14         433.47        2583.25         198.27
         261.17         210.76         201.33         -43.47        2920.19         555.13
          43.73           6.04        4113.33       -2467.00        1853.88         521.44
         171.03          78.64        5045.53       -3940.97        2195.72         740.75
          33.65         185.32         401.02         426.23        2503.76         258.42
         357.59         477.40         142.89        -109.80        2681.87         517.01
         491.27          46.91         653.13        -937.14        3295.79         706.61
         233.09         258.87         722.75       -1606.54        3941.81        1061.32
         167.46          30.07         846.70        -396.87        2902.60         589.66
         247.42          61.68         847.39        -111.23        2504.69         578.14
         302.90         123.28        1067.16        -365.83        2422.46         604.11
         160.84          27.32        1602.57        -490.80        2250.03         699.88
