 # HCl ZPE restriction,  Energy (cm-1), speed (m/s)
 #Water ZPE (DMC): 4713.0629051, HWW ZPE (DMC): 12528.93462455
 #E_given = DMC ZPE + 3550 =21233.1103893624.
 #Dvib = Evib - ZPE
 #D0 = E_given - Erot(W) - Erot(HWW) - Evib(W) + Evib(HWW) - E_COM,E_COM=0
 
       #Erot(W)     #Erot(HWW)       #Dvib(W)     #Dvib(HWW)             D0         #Speed
          74.59          12.77         757.62        -576.16        3281.13         601.06
         950.03         219.62        1117.32       -2015.11        3278.09         597.62
         535.73         250.95        1493.51       -2207.08        3476.85         770.13
         257.98         132.36         182.41          -1.15        2978.37         265.76
         283.31          97.04         120.01        -320.04        3369.66         691.26
         159.29         192.33        1592.39       -1786.49        3392.45         719.64
         334.71         153.21         228.68        -393.99        3227.36         582.72
         189.69           1.17        1922.93       -1654.13        3090.29         436.36
          76.66          44.98         798.58        -601.85        3231.58         564.75
         522.75         112.53        4009.37       -4239.77        3145.07         483.66
         638.54          77.33        1278.30       -1583.96        3139.76         479.58
          50.86         101.53         216.62          53.25        3127.71         444.42
         138.55         120.70        1206.99       -1007.81        3091.52         447.50
         246.58         109.81        2392.61       -2271.71        3072.67         429.14
         137.93          78.71        2103.20       -1903.85        3133.95         471.06
          33.43          30.81         471.97        -364.85        3378.60         672.58
          77.61          45.18        1930.41       -1864.08        3360.83         699.71
          81.63          11.05         311.56        -272.01        3417.74         702.92
         236.70          15.45         330.25         -70.44        3038.01         343.74
         324.93          42.79         621.58        -548.51        3109.16         451.21
         917.88           7.36         982.96       -1428.64        3070.39         404.13
         440.02         567.16         899.57       -1527.58        3170.78         530.01
         255.38         595.28         434.48        -826.27        3091.09         435.07
         470.41          55.08         388.09        -522.02        3158.39         541.30
          31.66          40.67         156.71         296.10        3024.84         312.81
         270.25         114.12        2289.08       -2321.54        3198.04         512.14
         279.19          82.40        2305.00       -2463.55        3346.91         676.73
         318.30           1.36        2167.78       -2023.02        3085.55         392.91
         297.38          30.43        2167.85       -1861.43        2915.75         190.28
          98.27          16.27         447.53        -402.62        3390.52         718.41
         126.11         348.74        3092.87       -4144.46        4126.67        1114.45
         526.09         151.13         448.15        -571.95        2996.53         268.27
         370.86          66.69          10.98         147.51        2953.91         226.41
         280.26          62.90        2215.54       -2237.27        3228.52         558.87
         316.92         129.11         807.98        -824.71        3120.66         478.53
         339.51          62.14         678.24       -1006.02        3476.10         756.72
         815.22          20.26          29.77       -1467.66        4152.35        1138.41
         323.10          68.97         243.50        -238.17        3152.56         472.04
         245.33         415.83         736.32        -995.10        3147.58         454.61
         794.05           8.83        3670.17       -3940.38        3017.31         320.87
         383.95         282.65        1592.03       -2234.21        3525.55         771.76
         293.39         123.60        3932.33       -3912.64        3113.29         434.66
          28.18         204.10        1426.51       -1348.00        3239.15         590.01
          14.65         184.11        2958.68       -2682.36        3074.88         412.66
          84.04         136.88         758.75        -502.59        3072.89         403.48
         949.71          30.94        2932.38       -3494.05        3130.99         480.17
         416.73          88.19         193.70        -255.82        3107.16         418.05
         207.09          15.02         203.25         141.57        2983.05         288.43
          19.75          26.92         788.53        -313.52        3028.27         342.36
         209.73          10.46         161.52          82.23        3086.01         354.16
         182.42         201.10         902.13       -1198.10        3462.40         764.79
         257.90         322.25        1425.65       -1737.08        3281.23         605.75
         129.08          23.51        1818.30       -1436.54        3015.63         348.22
         100.62           9.76        2298.72       -1906.72        3047.59         341.83
         326.25          61.25         266.22        -218.50        3114.74         446.76
         509.04         119.39        3506.71       -3601.19        3016.00         318.90
        1203.37         215.30         454.62       -1464.83        3141.51         487.51
         176.36           4.55        3143.71       -2869.85        3095.17         454.18
         457.12          17.76         531.61        -605.86        3149.34         508.19
         455.57         151.44        4467.67       -4549.30        3024.58         343.23
         877.78          53.74        2235.98       -2591.03        2973.51         209.97
         455.62          40.55        1795.56       -1811.69        3069.91         396.22
         282.05         116.66        1373.69       -1347.24        3124.80         436.61
         712.09          66.65        2334.27       -2856.66        3293.60         637.22
          55.47         788.50        2264.29       -3235.64        3677.32         903.78
         388.79          88.49         219.02        -355.92        3209.60         555.96
         149.42         171.56        1482.60       -1485.54        3231.91         558.41
          32.23         210.67         402.94        -338.69        3242.80         613.32
         141.76          40.87        2496.33       -3989.08        4860.07        1445.53
          98.72          32.33         685.09        -245.20        2979.01         260.52
         181.95         197.23         932.77        -956.56        3194.56         520.37
         252.16          76.66        1157.74        -909.18        2972.58         227.20
         530.68          71.15        1155.02       -1300.61        3093.71         441.22
         211.22         220.23          35.78        -409.84        3492.57         779.19
         166.76         111.86         475.41        -290.99        3086.91         436.46
         249.18          86.46         388.49        -477.54        3303.37         630.57
         262.32          90.30        1379.45       -1267.82        3085.69         433.21
           7.94          45.32         895.53        -429.32        3030.49         297.36
         189.68           9.28        2948.79       -2588.84        2991.04         342.33
         209.81         140.10         333.18        -119.76        2986.63         289.50
         152.12         403.25         166.06        -565.00        3393.51         711.62
         210.96         224.33        2790.04       -2853.81        3178.43         530.84
         149.25          34.07         328.97        -168.53        3206.21         524.53
         208.67          28.75        1425.79       -1478.36        3365.12         686.80
         380.26         141.39         237.60        -456.15        3246.86         609.77
         261.11          87.21        2112.75       -1954.30        3043.18         346.70
          20.23          52.19         700.93        -401.37        3177.98         556.90
         234.79           0.53         124.05         165.16        3025.43         297.25
         273.16         138.74        1381.38       -1497.34        3254.03         598.13
         891.95          20.15         696.82       -1050.45        2991.50         168.15
         732.46          48.63        1161.02       -1559.29        3167.14         504.07
          40.04          28.84         257.02          25.23        3198.82         533.72
         101.55         103.31        1195.19       -1197.92        3347.84         664.88
         182.12          13.98          61.72          54.96        3237.19         562.93
         411.57         134.77        1926.21       -1895.62        2973.03         236.08
         475.04         909.30         791.33       -2327.36        3701.66         915.40
         998.83          75.22        1115.87       -1574.83        2934.87         170.49
         290.81           5.10         265.18        -333.40        3322.25         670.32
         761.47          55.69        3028.71       -3365.48        3069.56         362.69
         235.39         267.42         912.73        -991.28        3125.70         448.20
          89.15         654.61        1497.58       -2020.03        3328.64         658.25
         235.66         256.24         784.45        -852.44        3126.06         423.03
         136.67          63.74        1802.29       -1353.97        2901.25         151.73
          52.47         235.19         137.26         127.74        2997.28         269.65
          85.10          95.86         264.51        -329.80        3434.29         740.26
          86.29          32.73         392.81        -859.82        3897.93        1017.89
         365.01          22.86         905.62        -695.86        2952.33         189.79
          10.82         205.95        2078.10       -2087.83        3342.94         668.76
         491.85          59.15        1051.86       -1537.09        3484.20         774.23
         420.43         112.93        2989.16       -3255.29        3282.73         616.71
         287.36         160.95        1195.00       -1062.56        2969.22         227.00
         473.94          82.63        1965.40       -2526.00        3553.99         805.13
         384.00          68.48        1115.39       -1779.21        3761.30         944.17
         105.32         357.12         306.22        -401.54        3182.84         540.91
         397.59          95.88         384.48        -914.05        3586.05         847.41
        1030.71         564.64        1463.21       -2775.06        3266.46         621.85
         465.45          45.59        1398.30       -1447.16        3087.78         394.27
         615.30         101.44        6280.15       -6506.94        3060.00         336.15
         396.82         112.34        1464.02       -1423.41        3000.19         316.39
        1017.08          64.21         564.56       -1171.39        3075.51         315.55
         233.48         151.75         618.02        -480.96        3027.67         342.03
         241.50          14.53         393.17         -80.34        2981.09         251.88
         263.23          51.14        1355.61       -1245.86        3125.85         474.45
         546.57         154.44        1929.96       -2111.83        3030.80         344.33
         446.08         108.72        2092.04       -2486.35        3389.48         719.98
         317.34          58.50        2257.65       -2228.06        3144.51         479.63
         135.24         180.99        2547.64       -2606.73        3292.81         614.78
         418.33         208.25         510.20        -644.78        3057.98         369.89
          99.75         341.12          84.69         -22.43        3046.82         396.52
         368.15           3.16        1477.45       -1389.61        3090.78         410.16
         133.95         113.26        3672.35       -3575.16        3205.56         565.00
        1053.72         158.54         177.64       -1483.56        3643.62         877.58
          22.20         378.11          35.25        -116.45        3230.83         552.94
         514.84         104.25         882.45       -1550.13        3598.56         831.36
         158.59          78.57        2969.84       -2716.76        3059.70         367.44
        1010.40          86.14        3120.37       -3684.44        3017.51         325.27
          68.90          89.33        1500.33       -1355.02        3246.43         560.01
         393.94         524.35         281.28        -974.80        3325.20         676.96
         356.34          37.81         634.36        -671.71        3193.16         557.20
         403.61           4.22         379.45        -230.79        2993.47         242.66
         336.14         158.30        2335.87       -2241.30        2960.96         232.43
         199.57          52.41         110.48        -808.87        3996.36        1082.03
         200.40         126.81        1055.67       -1135.80        3302.89         589.21
         130.78         101.73         945.22        -878.11        3250.33         594.24
         146.06         107.87         313.96          16.67        2965.41         220.33
         180.23         435.18        1891.54       -2245.25        3288.28         637.40
        1181.88          56.10        3495.91       -4279.78        3095.85         429.99
          49.30          73.33         621.13        -122.87        2929.07         162.82
         301.94          29.39        1259.44       -1236.28        3195.49         495.56
         291.62         190.68          40.61        -201.98        3229.02         557.06
         372.42         473.68         668.64       -1192.87        3228.09         583.02
          98.35          14.80         913.43        -674.33        3197.73         495.65
         393.26         205.33         143.21        -143.06        2951.20         185.55
         621.06          15.14        1167.17       -1394.11        3140.70         467.51
         260.07          60.97         811.17        -719.05        3136.81         518.03
         477.38         272.04          38.21        -436.78        3199.11         547.79
         200.07          28.71        1986.03       -1655.60        2990.75         266.10
          90.32          80.26         433.51         -93.52        3039.39         420.66
         171.39          89.37         860.47        -642.22        3070.95         398.25
         190.41          98.38         210.02         -36.32        3087.47         411.99
         139.47         286.49         879.43        -833.97        3078.55         414.48
         186.39         144.49         811.86        -878.99        3286.23         636.57
          81.12          67.29        1860.36       -1627.38        3168.57         527.77
         495.90          73.73        2871.87       -3204.89        3313.36         666.35
         242.75          25.96        2247.83       -2038.99        3072.43         443.96
          52.45          55.29        2581.74       -2350.16        3210.64         561.88
         278.51         121.29        1129.41       -1174.23        3194.98         525.47
         119.67         137.53          37.11        -305.32        3560.99         821.07
         320.53         493.05        1448.26       -1799.27        3087.40         436.72
         226.23          74.45          42.06         106.30        3100.92         433.64
         293.91           7.05         558.52        -498.19        3188.66         505.05
          17.16          70.05        1511.36       -1378.36        3329.75         641.85
         145.38          76.27          80.19         -93.44        3341.56         638.48
         601.12          18.51        2199.85       -2197.02        2927.52         108.69
          72.40          29.60         425.75        -328.40        3350.61         685.76
         535.02           5.50        1341.56       -1752.82        3420.69         717.88
          72.07          72.18        4775.80       -4307.21        2937.13         217.48
         281.24          33.27         852.37       -1251.47        3634.56         851.90
        1244.10          23.64        3507.25       -4339.98        3114.94         452.83
         366.99          11.39        2510.96       -2331.92        2992.56         256.19
         480.69          47.86        3097.53       -4253.04        4176.91        1152.58
         318.30          83.65        1613.58       -1827.03        3361.49         658.15
         131.93           4.05        2552.93       -2139.88        3000.93         280.57
         423.45         373.03        1231.22       -1817.66        3339.92         679.60
         188.06          21.94        1196.52       -1069.73        3213.15         552.97
          65.56          57.21         158.54         198.97        3069.68         355.81
         212.30         420.68        2395.16       -2593.87        3115.68         457.90
         217.22         121.67        1111.67        -882.31        2981.72         249.04
         382.19         213.25        1314.00       -1516.53        3157.05         502.37
         180.61          33.48        1825.64       -1483.19        2993.41         284.79
         522.43         294.47         953.39       -1501.62        3281.30         622.76
         109.40          25.43          57.92         144.91        3212.32         555.55
         796.93          61.85        2291.30       -2824.14        3224.03         561.58
         153.58         401.99         849.20        -810.32        2955.51         221.91
         758.32          98.24        2288.32       -2726.66        3131.72         473.80
          71.15          23.10         664.16        -482.61        3274.16         583.06
         336.83         242.20        1446.48       -1648.56        3173.01         523.79
         506.97         183.03         487.38        -674.63        3047.20         390.22
         575.77         214.24         720.40       -1235.88        3275.42         630.71
         252.45           8.95        2600.10       -2331.96        3020.41         309.16
         193.95          29.82         733.11        -371.09        2964.16         215.61
         438.74          76.13        2765.69       -2894.51        3163.91         504.63
         423.61          50.18        1789.47       -1756.48        3043.18         383.24
          74.88          81.23         377.14          80.00        2936.72         198.27
         261.17         210.76         201.33        -311.14        3187.85         555.13
          43.73           6.04        4113.33       -3793.91        3180.78         521.44
         171.03          78.64        5045.53       -5146.15        3400.90         740.75
          33.65         185.32         401.02         -40.87        2970.85         258.42
         357.59         477.40         142.89        -598.55        3170.62         517.01
         491.27          46.91         653.13       -1029.89        3388.54         706.61
         233.09         258.87         722.75       -1637.67        3972.93        1061.32
         167.46          30.07         846.70        -762.03        3267.76         589.66
         247.42          61.68         847.39        -846.83        3240.29         578.14
         302.90         123.28        1067.16       -1214.56        3271.18         604.11
         160.84          27.32        1602.57       -1629.68        3388.91         699.88
