 # HCl ZPE restriction,  Energy (cm-1), speed (m/s)
 #Water ZPE (DMC): 4713.0629051, HWW ZPE (DMC): 12528.93462455
 #E_given = DMC ZPE + 3550 =21233.1103893624.
 #Dvib = Evib - ZPE
 #D0 = E_given - Erot(W) - Erot(HWW) - Evib(W) + Evib(HWW) - E_COM,E_COM=0
 
       #Erot(W)     #Erot(HWW)       #Dvib(W)     #Dvib(HWW)             D0         #Speed
         438.74          76.13        2765.69       -2894.51        3163.91         504.63
          52.41         120.89         731.28        -653.31        3298.69         628.63
          74.59          12.77         757.62        -576.16        3281.13         601.06
         950.03         219.62        1117.32       -2015.11        3278.09         597.62
         535.73         250.95        1493.51       -2207.08        3476.85         770.13
         257.98         132.36         182.41          -1.15        2978.37         265.76
         283.31          97.04         120.01        -320.04        3369.66         691.26
         134.11          19.46         348.00        -274.91        3323.31         663.50
          62.61         137.53         153.49         204.46        2991.85         332.20
         481.62         242.06         512.04        -810.08        3124.33         484.99
         159.29         192.33        1592.39       -1786.49        3392.45         719.64
         334.71         153.21         228.68        -393.99        3227.36         582.72
         189.69           1.17        1922.93       -1654.13        3090.29         436.36
          76.66          44.98         798.58        -601.85        3231.58         564.75
         522.75         112.53        4009.37       -4239.77        3145.07         483.66
         379.20         234.05         462.35       -1212.68        3687.04         893.17
         322.98         203.67         296.89        -236.01        2962.45         236.52
         637.78          80.76         321.31        -705.95        3216.06         556.37
          26.30          10.02         127.59         242.28        3143.78         474.54
         255.00         302.95         778.17        -798.61        3012.45         312.50
         125.62         178.03         479.81        -363.95        3130.45         511.70
         638.54          77.33        1278.30       -1583.96        3139.76         479.58
          50.86         101.53         216.62          53.25        3127.71         444.42
         138.55         120.70        1206.99       -1007.81        3091.52         447.50
         246.58         109.81        2392.61       -2271.71        3072.67         429.14
         137.93          78.71        2103.20       -1903.85        3133.95         471.06
          33.43          30.81         471.97        -364.85        3378.60         672.58
          77.61          45.18        1930.41       -1864.08        3360.83         699.71
          81.63          11.05         311.56        -272.01        3417.74         702.92
         236.70          15.45         330.25         -70.44        3038.01         343.74
         324.93          42.79         621.58        -548.51        3109.16         451.21
         917.88           7.36         982.96       -1428.64        3070.39         404.13
         440.02         567.16         899.57       -1527.58        3170.78         530.01
         255.38         595.28         434.48        -826.27        3091.09         435.07
         470.41          55.08         388.09        -522.02        3158.39         541.30
         423.61          50.18        1789.47       -1756.48        3043.18         383.24
          74.88          81.23         377.14          80.00        2936.72         198.27
          31.66          40.67         156.71         296.10        3024.84         312.81
         270.25         114.12        2289.08       -2321.54        3198.04         512.14
         279.19          82.40        2305.00       -2463.55        3346.91         676.73
         318.30           1.36        2167.78       -2023.02        3085.55         392.91
         297.38          30.43        2167.85       -1861.43        2915.75         190.28
          98.27          16.27         447.53        -402.62        3390.52         718.41
         126.11         348.74        3092.87       -4144.46        4126.67        1114.45
         526.09         151.13         448.15        -571.95        2996.53         268.27
         370.86          66.69          10.98         147.51        2953.91         226.41
         261.17         210.76         201.33        -311.14        3187.85         555.13
          43.73           6.04        4113.33       -3793.91        3180.78         521.44
         280.26          62.90        2215.54       -2237.27        3228.52         558.87
         316.92         129.11         807.98        -824.71        3120.66         478.53
         339.51          62.14         678.24       -1006.02        3476.10         756.72
         815.22          20.26          29.77       -1467.66        4152.35        1138.41
         323.10          68.97         243.50        -238.17        3152.56         472.04
         245.33         415.83         736.32        -995.10        3147.58         454.61
         794.05           8.83        3670.17       -3940.38        3017.31         320.87
         171.03          78.64        5045.53       -5146.15        3400.90         740.75
         206.73         134.22        1608.18       -1542.55        3143.37         446.34
         383.95         282.65        1592.03       -2234.21        3525.55         771.76
         293.39         123.60        3932.33       -3912.64        3113.29         434.66
          33.65         185.32         401.02         -40.87        2970.85         258.42
         357.59         477.40         142.89        -598.55        3170.62         517.01
         491.27          46.91         653.13       -1029.89        3388.54         706.61
         395.67         137.08        2053.31       -2124.88        3088.77         399.74
         472.23          14.38        1441.23       -1639.62        3261.73         601.57
         280.02         279.24         550.97        -628.27        3067.99         396.60
         251.08          93.39        1569.98       -1350.41        2985.92         292.41
         502.56          87.20         259.37        -247.63        2948.46         160.62
          28.18         204.10        1426.51       -1348.00        3239.15         590.01
          14.65         184.11        2958.68       -2682.36        3074.88         412.66
         299.55         119.55         199.94         -75.57        3006.49         292.93
         943.84         210.41         733.35       -1495.23        3157.59         488.99
          84.04         136.88         758.75        -502.59        3072.89         403.48
         949.71          30.94        2932.38       -3494.05        3130.99         480.17
         416.73          88.19         193.70        -255.82        3107.16         418.05
         207.09          15.02         203.25         141.57        2983.05         288.43
          19.75          26.92         788.53        -313.52        3028.27         342.36
         209.73          10.46         161.52          82.23        3086.01         354.16
         182.42         201.10         902.13       -1198.10        3462.40         764.79
         257.90         322.25        1425.65       -1737.08        3281.23         605.75
         129.08          23.51        1818.30       -1436.54        3015.63         348.22
         100.62           9.76        2298.72       -1906.72        3047.59         341.83
         326.25          61.25         266.22        -218.50        3114.74         446.76
         509.04         119.39        3506.71       -3601.19        3016.00         318.90
        1203.37         215.30         454.62       -1464.83        3141.51         487.51
         176.36           4.55        3143.71       -2869.85        3095.17         454.18
         457.12          17.76         531.61        -605.86        3149.34         508.19
         486.59         199.98         262.60        -473.14        3073.91         409.07
         391.53         163.04        2772.43       -2886.75        3109.72         430.82
         455.57         151.44        4467.67       -4549.30        3024.58         343.23
         877.78          53.74        2235.98       -2591.03        2973.51         209.97
         446.49          56.64        1014.76       -1000.06        3032.12         379.45
         153.54          84.44        1438.89       -1224.78        3097.90         417.76
         573.97         140.78        1769.33       -2469.80        3535.66         823.14
         377.27          43.52        3165.27       -3590.47        3554.37         824.74
         810.94         147.14         846.94       -1413.41        3158.35         493.92
         455.62          40.55        1795.56       -1811.69        3069.91         396.22
         282.05         116.66        1373.69       -1347.24        3124.80         436.61
         496.03          37.38        1769.87       -1783.04        3029.73         361.94
         377.41         127.02        1700.80       -2210.97        3555.70         811.08
         850.51         121.26        1209.76       -1918.67        3287.08         590.45
         231.14          26.88         911.00        -673.28        3054.23         401.04
         177.09         155.03         368.60        -322.94        3172.17         518.61
         202.23          81.12        2497.65       -2224.64        2993.61         214.41
          62.77         179.74        1506.73       -1212.59        3013.33         289.18
         530.69         157.47        2322.43       -3161.63        3700.99         880.92
        1092.46         138.86        1742.24       -2656.38        3232.78         561.29
          52.54          37.18         849.76        -391.79        3002.27         288.80
         285.19          39.19         631.37        -488.91        3083.12         409.79
         180.53         251.15         550.44        -658.72        3226.55         560.39
         293.04           4.16        2852.03       -2742.72        3143.46         493.57
         360.37         127.49        1907.82       -2896.25        4050.53        1103.92
         403.89         265.49         781.81       -1252.82        3351.61         690.87
         163.96         380.64        1611.17       -1883.45        3277.63         622.79
         476.56           1.78        1414.58       -1424.93        3081.97         335.41
         368.98          62.09         430.37        -250.62        2939.13         228.53
         153.01         109.94        2954.23       -3162.98        3495.75         769.27
           5.47          32.23         963.66        -462.08        3010.68         325.96
         273.85          77.68        1129.77       -1044.53        3113.21         433.39
         485.86         313.78        2034.61       -2494.49        3210.20         561.50
         393.59         253.72        2755.62       -3003.54        3150.55         484.25
         265.20          26.26         536.17        -536.13        3258.47         625.55
         712.09          66.65        2334.27       -2856.66        3293.60         637.22
          55.47         788.50        2264.29       -3235.64        3677.32         903.78
         388.79          88.49         219.02        -355.92        3209.60         555.96
         149.42         171.56        1482.60       -1485.54        3231.91         558.41
          32.23         210.67         402.94        -338.69        3242.80         613.32
         141.76          40.87        2496.33       -3989.08        4860.07        1445.53
          98.72          32.33         685.09        -245.20        2979.01         260.52
         181.95         197.23         932.77        -956.56        3194.56         520.37
         252.16          76.66        1157.74        -909.18        2972.58         227.20
         530.68          71.15        1155.02       -1300.61        3093.71         441.22
        1157.13           7.06        1250.45       -2123.80        3259.09         601.10
         459.36          52.30          15.05        -472.87        3496.11         772.69
         211.22         220.23          35.78        -409.84        3492.57         779.19
         166.76         111.86         475.41        -290.99        3086.91         436.46
         249.18          86.46         388.49        -477.54        3303.37         630.57
         262.32          90.30        1379.45       -1267.82        3085.69         433.21
           7.94          45.32         895.53        -429.32        3030.49         297.36
         189.68           9.28        2948.79       -2588.84        2991.04         342.33
         209.81         140.10         333.18        -119.76        2986.63         289.50
         152.12         403.25         166.06        -565.00        3393.51         711.62
         277.50          43.54         521.25        -421.17        3128.83         434.39
         565.14         101.89         969.27       -1168.44        3082.11         381.84
         551.31         182.82        1115.55       -1288.37        2988.65         275.87
         210.96         224.33        2790.04       -2853.81        3178.43         530.84
         149.25          34.07         328.97        -168.53        3206.21         524.53
         208.67          28.75        1425.79       -1478.36        3365.12         686.80
         380.26         141.39         237.60        -456.15        3246.86         609.77
         162.24         148.98        1476.86       -1289.82        3051.71         343.62
         646.53         169.32         111.09        -474.56        3097.58         442.29
         337.44         125.04        1207.07       -1242.69        3123.11         471.12
         261.11          87.21        2112.75       -1954.30        3043.18         346.70
          20.23          52.19         700.93        -401.37        3177.98         556.90
         234.79           0.53         124.05         165.16        3025.43         297.25
         257.14         410.85        1460.40       -1604.69        3026.27         368.06
          78.53         230.55         222.34          64.53        2954.01         187.30
         119.54          81.96        2840.80       -2904.25        3411.91         706.28
         273.16         138.74        1381.38       -1497.34        3254.03         598.13
         891.95          20.15         696.82       -1050.45        2991.50         168.15
         732.46          48.63        1161.02       -1559.29        3167.14         504.07
          40.04          28.84         257.02          25.23        3198.82         533.72
         101.55         103.31        1195.19       -1197.92        3347.84         664.88
         182.12          13.98          61.72          54.96        3237.19         562.93
         411.57         134.77        1926.21       -1895.62        2973.03         236.08
         475.04         909.30         791.33       -2327.36        3701.66         915.40
         998.83          75.22        1115.87       -1574.83        2934.87         170.49
          51.56         148.58        4072.07       -3998.52        3276.27         617.03
         290.81           5.10         265.18        -333.40        3322.25         670.32
         761.47          55.69        3028.71       -3365.48        3069.56         362.69
         235.39         267.42         912.73        -991.28        3125.70         448.20
          89.15         654.61        1497.58       -2020.03        3328.64         658.25
         235.66         256.24         784.45        -852.44        3126.06         423.03
         136.67          63.74        1802.29       -1353.97        2901.25         151.73
          52.47         235.19         137.26         127.74        2997.28         269.65
          85.10          95.86         264.51        -329.80        3434.29         740.26
          86.29          32.73         392.81        -859.82        3897.93        1017.89
         365.01          22.86         905.62        -695.86        2952.33         189.79
          10.82         205.95        2078.10       -2087.83        3342.94         668.76
         491.85          59.15        1051.86       -1537.09        3484.20         774.23
         420.43         112.93        2989.16       -3255.29        3282.73         616.71
         287.36         160.95        1195.00       -1062.56        2969.22         227.00
         473.94          82.63        1965.40       -2526.00        3553.99         805.13
         384.00          68.48        1115.39       -1779.21        3761.30         944.17
         105.32         357.12         306.22        -401.54        3182.84         540.91
         397.59          95.88         384.48        -914.05        3586.05         847.41
         813.78         707.27           5.23       -1152.90        3176.58         527.34
        1030.71         564.64        1463.21       -2775.06        3266.46         621.85
         465.45          45.59        1398.30       -1447.16        3087.78         394.27
         615.30         101.44        6280.15       -6506.94        3060.00         336.15
         396.82         112.34        1464.02       -1423.41        3000.19         316.39
        1017.08          64.21         564.56       -1171.39        3075.51         315.55
         233.48         151.75         618.02        -480.96        3027.67         342.03
         241.50          14.53         393.17         -80.34        2981.09         251.88
         263.23          51.14        1355.61       -1245.86        3125.85         474.45
         634.30          10.61         399.75        -473.97        2979.27         199.55
         282.54         351.86         840.05       -1442.53        3518.02         792.01
         537.33         115.80         271.50        -666.36        3291.68         626.99
         312.69          51.84         167.93        -115.48        3132.99         452.59
         185.66          64.14         795.76        -423.69        2928.11          90.72
         703.81         159.01        1033.26       -1399.43        3053.32         360.96
         362.36          24.80        1909.48       -1875.26        3128.59         457.40
         186.23         415.22        1854.99       -2490.59        3584.12         843.86
         668.61           2.22         509.33        -685.55        3055.34         393.70
         546.57         154.44        1929.96       -2111.83        3030.80         344.33
         446.08         108.72        2092.04       -2486.35        3389.48         719.98
         317.34          58.50        2257.65       -2228.06        3144.51         479.63
         135.24         180.99        2547.64       -2606.73        3292.81         614.78
         418.33         208.25         510.20        -644.78        3057.98         369.89
          99.75         341.12          84.69         -22.43        3046.82         396.52
         368.15           3.16        1477.45       -1389.61        3090.78         410.16
         133.95         113.26        3672.35       -3575.16        3205.56         565.00
        1053.72         158.54         177.64       -1483.56        3643.62         877.58
          22.20         378.11          35.25        -116.45        3230.83         552.94
         514.84         104.25         882.45       -1550.13        3598.56         831.36
         158.59          78.57        2969.84       -2716.76        3059.70         367.44
