 # HCl ZPE restriction,  Energy (cm-1), speed (m/s)
 #Water ZPE (DMC): 4713.0629051, HWW ZPE (DMC): 12528.93462455
 #E_given = DMC ZPE + 3550 =21233.1103893624.
 #Dvib = Evib - ZPE
 #D0 = E_given - Erot(W) - Erot(HWW) - Evib(W) + Evib(HWW) - E_COM,E_COM=0
 
       #Erot(W)     #Erot(HWW)       #Dvib(W)     #Dvib(HWW)             D0         #Speed
          74.59          12.77         757.62        -576.16        3722.25         601.06
         950.03         219.62        1117.32       -2015.11        3719.20         597.62
         535.73         250.95        1493.51       -2207.08        3917.97         770.13
         257.98         132.36         182.41          -1.15        3419.49         265.76
         283.31          97.04         120.01        -320.04        3810.77         691.26
         159.29         192.33        1592.39       -1786.49        3833.56         719.64
         334.71         153.21         228.68        -393.99        3668.48         582.72
         189.69           1.17        1922.93       -1654.13        3531.40         436.36
          76.66          44.98         798.58        -601.85        3672.69         564.75
         522.75         112.53        4009.37       -4239.77        3586.18         483.66
         638.54          77.33        1278.30       -1583.96        3580.88         479.58
          50.86         101.53         216.62          53.25        3568.83         444.42
         138.55         120.70        1206.99       -1007.81        3532.63         447.50
         246.58         109.81        2392.61       -2271.71        3513.79         429.14
         137.93          78.71        2103.20       -1903.85        3575.07         471.06
          33.43          30.81         471.97        -364.85        3819.71         672.58
          77.61          45.18        1930.41       -1864.08        3801.94         699.71
          81.63          11.05         311.56        -272.01        3858.85         702.92
         236.70          15.45         330.25         -70.44        3479.12         343.74
         324.93          42.79         621.58        -548.51        3550.28         451.21
         917.88           7.36         982.96       -1428.64        3511.50         404.13
         440.02         567.16         899.57       -1527.58        3611.89         530.01
         255.38         595.28         434.48        -826.27        3532.20         435.07
         470.41          55.08         388.09        -522.02        3599.51         541.30
          31.66          40.67         156.71         296.10        3465.95         312.81
         270.25         114.12        2289.08       -2321.54        3639.15         512.14
         279.19          82.40        2305.00       -2463.55        3788.03         676.73
         318.30           1.36        2167.78       -2023.02        3526.66         392.91
         297.38          30.43        2167.85       -1861.43        3356.87         190.28
          98.27          16.27         447.53        -402.62        3831.63         718.41
         126.11         348.74        3092.87       -4144.46        4567.79        1114.45
         526.09         151.13         448.15        -571.95        3437.64         268.27
         370.86          66.69          10.98         147.51        3395.03         226.41
         280.26          62.90        2215.54       -2237.27        3669.63         558.87
         316.92         129.11         807.98        -824.71        3561.78         478.53
         339.51          62.14         678.24       -1006.02        3917.21         756.72
         815.22          20.26          29.77       -1467.66        4593.46        1138.41
         323.10          68.97         243.50        -238.17        3593.67         472.04
         245.33         415.83         736.32        -995.10        3588.69         454.61
         794.05           8.83        3670.17       -3940.38        3458.42         320.87
         383.95         282.65        1592.03       -2234.21        3966.66         771.76
         293.39         123.60        3932.33       -3912.64        3554.41         434.66
          28.18         204.10        1426.51       -1348.00        3680.27         590.01
          14.65         184.11        2958.68       -2682.36        3515.99         412.66
          84.04         136.88         758.75        -502.59        3514.01         403.48
         949.71          30.94        2932.38       -3494.05        3572.10         480.17
         416.73          88.19         193.70        -255.82        3548.27         418.05
         207.09          15.02         203.25         141.57        3424.16         288.43
          19.75          26.92         788.53        -313.52        3469.38         342.36
         209.73          10.46         161.52          82.23        3527.13         354.16
         182.42         201.10         902.13       -1198.10        3903.52         764.79
         257.90         322.25        1425.65       -1737.08        3722.35         605.75
         129.08          23.51        1818.30       -1436.54        3456.74         348.22
         100.62           9.76        2298.72       -1906.72        3488.70         341.83
         326.25          61.25         266.22        -218.50        3555.85         446.76
         509.04         119.39        3506.71       -3601.19        3457.11         318.90
        1203.37         215.30         454.62       -1464.83        3582.62         487.51
         176.36           4.55        3143.71       -2869.85        3536.28         454.18
         457.12          17.76         531.61        -605.86        3590.45         508.19
         455.57         151.44        4467.67       -4549.30        3465.69         343.23
         877.78          53.74        2235.98       -2591.03        3414.62         209.97
         455.62          40.55        1795.56       -1811.69        3511.02         396.22
         282.05         116.66        1373.69       -1347.24        3565.91         436.61
         712.09          66.65        2334.27       -2856.66        3734.71         637.22
          55.47         788.50        2264.29       -3235.64        4118.43         903.78
         388.79          88.49         219.02        -355.92        3650.71         555.96
         149.42         171.56        1482.60       -1485.54        3673.02         558.41
          32.23         210.67         402.94        -338.69        3683.91         613.32
         141.76          40.87        2496.33       -3989.08        5301.18        1445.53
          98.72          32.33         685.09        -245.20        3420.13         260.52
         181.95         197.23         932.77        -956.56        3635.67         520.37
         252.16          76.66        1157.74        -909.18        3413.69         227.20
         530.68          71.15        1155.02       -1300.61        3534.82         441.22
         211.22         220.23          35.78        -409.84        3933.68         779.19
         166.76         111.86         475.41        -290.99        3528.03         436.46
         249.18          86.46         388.49        -477.54        3744.48         630.57
         262.32          90.30        1379.45       -1267.82        3526.80         433.21
           7.94          45.32         895.53        -429.32        3471.61         297.36
         189.68           9.28        2948.79       -2588.84        3432.16         342.33
         209.81         140.10         333.18        -119.76        3427.74         289.50
         152.12         403.25         166.06        -565.00        3834.63         711.62
         210.96         224.33        2790.04       -2853.81        3619.54         530.84
         149.25          34.07         328.97        -168.53        3647.32         524.53
         208.67          28.75        1425.79       -1478.36        3806.23         686.80
         380.26         141.39         237.60        -456.15        3687.97         609.77
         261.11          87.21        2112.75       -1954.30        3484.29         346.70
          20.23          52.19         700.93        -401.37        3619.10         556.90
         234.79           0.53         124.05         165.16        3466.54         297.25
         273.16         138.74        1381.38       -1497.34        3695.14         598.13
         891.95          20.15         696.82       -1050.45        3432.62         168.15
         732.46          48.63        1161.02       -1559.29        3608.26         504.07
          40.04          28.84         257.02          25.23        3639.93         533.72
         101.55         103.31        1195.19       -1197.92        3788.95         664.88
         182.12          13.98          61.72          54.96        3678.30         562.93
         411.57         134.77        1926.21       -1895.62        3414.14         236.08
         475.04         909.30         791.33       -2327.36        4142.77         915.40
         998.83          75.22        1115.87       -1574.83        3375.98         170.49
         290.81           5.10         265.18        -333.40        3763.37         670.32
         761.47          55.69        3028.71       -3365.48        3510.67         362.69
         235.39         267.42         912.73        -991.28        3566.82         448.20
          89.15         654.61        1497.58       -2020.03        3769.75         658.25
         235.66         256.24         784.45        -852.44        3567.17         423.03
         136.67          63.74        1802.29       -1353.97        3342.36         151.73
          52.47         235.19         137.26         127.74        3438.39         269.65
          85.10          95.86         264.51        -329.80        3875.40         740.26
          86.29          32.73         392.81        -859.82        4339.05        1017.89
         365.01          22.86         905.62        -695.86        3393.44         189.79
          10.82         205.95        2078.10       -2087.83        3784.05         668.76
         491.85          59.15        1051.86       -1537.09        3925.31         774.23
         420.43         112.93        2989.16       -3255.29        3723.84         616.71
         287.36         160.95        1195.00       -1062.56        3410.33         227.00
         473.94          82.63        1965.40       -2526.00        3995.11         805.13
         384.00          68.48        1115.39       -1779.21        4202.42         944.17
         105.32         357.12         306.22        -401.54        3623.96         540.91
         397.59          95.88         384.48        -914.05        4027.17         847.41
        1030.71         564.64        1463.21       -2775.06        3707.57         621.85
         465.45          45.59        1398.30       -1447.16        3528.89         394.27
         615.30         101.44        6280.15       -6506.94        3501.11         336.15
         396.82         112.34        1464.02       -1423.41        3441.30         316.39
        1017.08          64.21         564.56       -1171.39        3516.63         315.55
         233.48         151.75         618.02        -480.96        3468.78         342.03
         241.50          14.53         393.17         -80.34        3422.20         251.88
         263.23          51.14        1355.61       -1245.86        3566.97         474.45
         546.57         154.44        1929.96       -2111.83        3471.92         344.33
         446.08         108.72        2092.04       -2486.35        3830.59         719.98
         317.34          58.50        2257.65       -2228.06        3585.62         479.63
         135.24         180.99        2547.64       -2606.73        3733.92         614.78
         418.33         208.25         510.20        -644.78        3499.10         369.89
          99.75         341.12          84.69         -22.43        3487.93         396.52
         368.15           3.16        1477.45       -1389.61        3531.90         410.16
         133.95         113.26        3672.35       -3575.16        3646.67         565.00
        1053.72         158.54         177.64       -1483.56        4084.73         877.58
          22.20         378.11          35.25        -116.45        3671.95         552.94
         514.84         104.25         882.45       -1550.13        4039.67         831.36
         158.59          78.57        2969.84       -2716.76        3500.81         367.44
        1010.40          86.14        3120.37       -3684.44        3458.62         325.27
          68.90          89.33        1500.33       -1355.02        3687.55         560.01
         393.94         524.35         281.28        -974.80        3766.32         676.96
         356.34          37.81         634.36        -671.71        3634.28         557.20
         403.61           4.22         379.45        -230.79        3434.59         242.66
         336.14         158.30        2335.87       -2241.30        3402.07         232.43
         199.57          52.41         110.48        -808.87        4437.48        1082.03
         200.40         126.81        1055.67       -1135.80        3744.01         589.21
         130.78         101.73         945.22        -878.11        3691.45         594.24
         146.06         107.87         313.96          16.67        3406.53         220.33
         180.23         435.18        1891.54       -2245.25        3729.39         637.40
        1181.88          56.10        3495.91       -4279.78        3536.96         429.99
          49.30          73.33         621.13        -122.87        3370.19         162.82
         301.94          29.39        1259.44       -1236.28        3636.60         495.56
         291.62         190.68          40.61        -201.98        3670.13         557.06
         372.42         473.68         668.64       -1192.87        3669.20         583.02
          98.35          14.80         913.43        -674.33        3638.85         495.65
         393.26         205.33         143.21        -143.06        3392.32         185.55
         621.06          15.14        1167.17       -1394.11        3581.81         467.51
         260.07          60.97         811.17        -719.05        3577.92         518.03
         477.38         272.04          38.21        -436.78        3640.23         547.79
         200.07          28.71        1986.03       -1655.60        3431.87         266.10
          90.32          80.26         433.51         -93.52        3480.50         420.66
         171.39          89.37         860.47        -642.22        3512.07         398.25
         190.41          98.38         210.02         -36.32        3528.58         411.99
         139.47         286.49         879.43        -833.97        3519.66         414.48
         186.39         144.49         811.86        -878.99        3727.34         636.57
          81.12          67.29        1860.36       -1627.38        3609.68         527.77
         495.90          73.73        2871.87       -3204.89        3754.48         666.35
         242.75          25.96        2247.83       -2038.99        3513.54         443.96
          52.45          55.29        2581.74       -2350.16        3651.75         561.88
         278.51         121.29        1129.41       -1174.23        3636.09         525.47
         119.67         137.53          37.11        -305.32        4002.10         821.07
         320.53         493.05        1448.26       -1799.27        3528.52         436.72
         226.23          74.45          42.06         106.30        3542.03         433.64
         293.91           7.05         558.52        -498.19        3629.77         505.05
          17.16          70.05        1511.36       -1378.36        3770.86         641.85
         145.38          76.27          80.19         -93.44        3782.68         638.48
         601.12          18.51        2199.85       -2197.02        3368.63         108.69
          72.40          29.60         425.75        -328.40        3791.72         685.76
         535.02           5.50        1341.56       -1752.82        3861.81         717.88
          72.07          72.18        4775.80       -4307.21        3378.25         217.48
         281.24          33.27         852.37       -1251.47        4075.67         851.90
        1244.10          23.64        3507.25       -4339.98        3556.06         452.83
         366.99          11.39        2510.96       -2331.92        3433.67         256.19
         480.69          47.86        3097.53       -4253.04        4618.02        1152.58
         318.30          83.65        1613.58       -1827.03        3802.60         658.15
         131.93           4.05        2552.93       -2139.88        3442.05         280.57
         423.45         373.03        1231.22       -1817.66        3781.03         679.60
         188.06          21.94        1196.52       -1069.73        3654.26         552.97
          65.56          57.21         158.54         198.97        3510.80         355.81
         212.30         420.68        2395.16       -2593.87        3556.80         457.90
         217.22         121.67        1111.67        -882.31        3422.83         249.04
         382.19         213.25        1314.00       -1516.53        3598.16         502.37
         180.61          33.48        1825.64       -1483.19        3434.53         284.79
         522.43         294.47         953.39       -1501.62        3722.41         622.76
         109.40          25.43          57.92         144.91        3653.43         555.55
         796.93          61.85        2291.30       -2824.14        3665.14         561.58
         153.58         401.99         849.20        -810.32        3396.62         221.91
         758.32          98.24        2288.32       -2726.66        3572.83         473.80
          71.15          23.10         664.16        -482.61        3715.27         583.06
         336.83         242.20        1446.48       -1648.56        3614.13         523.79
         506.97         183.03         487.38        -674.63        3488.31         390.22
         575.77         214.24         720.40       -1235.88        3716.53         630.71
         252.45           8.95        2600.10       -2331.96        3461.52         309.16
         193.95          29.82         733.11        -371.09        3405.28         215.61
         438.74          76.13        2765.69       -2894.51        3605.02         504.63
         423.61          50.18        1789.47       -1756.48        3484.29         383.24
          74.88          81.23         377.14          80.00        3377.83         198.27
         261.17         210.76         201.33        -311.14        3628.97         555.13
          43.73           6.04        4113.33       -3793.91        3621.89         521.44
         171.03          78.64        5045.53       -5146.15        3842.01         740.75
          33.65         185.32         401.02         -40.87        3411.97         258.42
         357.59         477.40         142.89        -598.55        3611.73         517.01
         491.27          46.91         653.13       -1029.89        3829.66         706.61
         233.09         258.87         722.75       -1637.67        4414.05        1061.32
         167.46          30.07         846.70        -762.03        3708.88         589.66
         247.42          61.68         847.39        -846.83        3681.41         578.14
         302.90         123.28        1067.16       -1214.56        3712.29         604.11
         160.84          27.32        1602.57       -1629.68        3830.02         699.88
