 # Hard ZPE restriction,  Energy (cm-1), speed (m/s)
 #Water ZPE (DMC): 4713.0629051, HWW ZPE (DMC): 12528.93462455
 #E_given = DMC ZPE + 3550 =21233.1103893624.
 #Dvib = Evib - ZPE
 #D0 = E_given - Erot(W) - Erot(HWW) - Evib(W) + Evib(HWW) - E_COM,E_COM=0
 
       #Erot(W)     #Erot(HWW)       #Dvib(W)     #Dvib(HWW)             D0         #Speed
          74.59          12.77         757.62         834.30        1870.67         601.06
         257.98         132.36         182.41        1008.08        1969.14         265.76
         334.71         153.21         228.68         424.94        2408.44         582.72
          50.86         101.53         216.62        1654.16        1526.80         444.42
         138.55         120.70        1206.99         357.32        1726.39         447.50
          33.43          30.81         471.97          54.83        2958.92         672.58
         236.70          15.45         330.25         645.51        2322.05         343.74
         324.93          42.79         621.58         456.47        2104.18         451.21
         440.02         567.16         899.57         297.78        1345.42         530.01
         470.41          55.08         388.09         371.21        2265.17         541.30
          31.66          40.67         156.71        1631.23        1689.70         312.81
          98.27          16.27         447.53         828.43        2159.47         718.41
         370.86          66.69          10.98         245.76        2855.67         226.41
         339.51          62.14         678.24         146.88        2323.20         756.72
         323.10          68.97         243.50         650.95        2263.43         472.04
          84.04         136.88         758.75         832.84        1737.47         403.48
         416.73          88.19         193.70         904.27        1947.07         418.05
         207.09          15.02         203.25         654.25        2470.36         288.43
          19.75          26.92         788.53         624.14        2090.60         342.36
         209.73          10.46         161.52        1722.68        1445.57         354.16
         326.25          61.25         266.22         545.73        2350.51         446.76
         457.12          17.76         531.61         615.85        1927.64         508.19
         282.05         116.66        1373.69         381.70        1395.86         436.61
         388.79          88.49         219.02          54.32        2799.36         555.96
          32.23         210.67         402.94         984.70        1919.42         613.32
          98.72          32.33         685.09         766.12        1967.70         260.52
         181.95         197.23         932.77         342.22        1895.77         520.37
         211.22         220.23          35.78         400.89        2681.84         779.19
         166.76         111.86         475.41         407.00        2388.92         436.46
         249.18          86.46         388.49         424.86        2400.97         630.57
           7.94          45.32         895.53         514.95        2086.23         297.36
         209.81         140.10         333.18         109.48        2757.39         289.50
         152.12         403.25         166.06         740.20        2088.31         711.62
         149.25          34.07         328.97        1029.98        2007.70         524.53
         380.26         141.39         237.60         509.74        2280.98         609.77
          20.23          52.19         700.93          19.75        2756.86         556.90
         234.79           0.53         124.05        1927.74        1262.85         297.25
         732.46          48.63        1161.02          77.10        1530.76         504.07
          40.04          28.84         257.02         720.75        2503.31         533.72
         182.12          13.98          61.72        1356.81        1935.34         562.93
         290.81           5.10         265.18         916.65        2072.21         670.32
         235.66         256.24         784.45         345.19        1928.43         423.03
          52.47         235.19         137.26         272.65        2852.37         269.65
          85.10          95.86         264.51         104.16        3000.32         740.26
          86.29          32.73         392.81         894.09        2144.03        1017.89
         287.36         160.95        1195.00          53.57        1853.09         227.00
         105.32         357.12         306.22         537.31        2243.99         540.91
        1017.08          64.21         564.56         277.94        1626.18         315.55
         233.48         151.75         618.02         618.71        1927.99         342.03
         241.50          14.53         393.17        1194.27        1706.48         251.88
          99.75         341.12          84.69          36.08        2988.31         396.52
          22.20         378.11          35.25        1526.57        1587.82         552.94
         393.94         524.35         281.28         401.14        1949.27         676.96
         356.34          37.81         634.36         183.88        2337.58         557.20
         403.61           4.22         379.45        1304.15        1458.53         242.66
         199.57          52.41         110.48         488.83        2698.66        1082.03
         146.06         107.87         313.96        1164.04        1818.03         220.33
          49.30          73.33         621.13         770.72        2035.49         162.82
          98.35          14.80         913.43          55.51        2467.90         495.65
         393.26         205.33         143.21         832.31        1975.84         185.55
         621.06          15.14        1167.17         177.45        1569.13         467.51
         477.38         272.04          38.21        1485.15        1277.18         547.79
          90.32          80.26         433.51         877.96        2067.91         420.66
         171.39          89.37         860.47         641.52        1787.21         398.25
         190.41          98.38         210.02        1543.80        1507.35         411.99
         186.39         144.49         811.86         173.56        2233.68         636.57
         119.67         137.53          37.11        1408.00        1847.67         821.07
         226.23          74.45          42.06         608.42        2598.79         433.64
         145.38          76.27          80.19         701.17        2546.96         638.48
          72.40          29.60         425.75         633.77        2388.44         685.76
          65.56          57.21         158.54        1416.32        1852.34         355.81
         109.40          25.43          57.92         931.57        2425.66         555.55
         153.58         401.99         849.20         622.44        1522.75         221.91
          71.15          23.10         664.16         286.01        2505.53         583.06
         193.95          29.82         733.11         357.30        2235.77         215.61
          74.88          81.23         377.14         433.47        2583.25         198.27
          33.65         185.32         401.02         426.23        2503.76         258.42
         312.69          51.84         167.93         976.59        2040.92         452.59
         185.66          64.14         795.76         961.78        1542.63          90.72
         195.34          29.33         356.66         852.27        2116.36         565.93
          99.32          85.15          48.01        1738.76        1578.72         420.60
         205.98          21.20         365.64         155.45        2801.66         345.24
         813.78         707.27           5.23          70.97        1952.70         527.34
         634.30          10.61         399.75         106.22        2399.09         199.55
         282.54         351.86         840.05          23.21        2052.27         792.01
         280.02         279.24         550.97         571.77        1867.95         396.60
         502.56          87.20         259.37         817.11        1883.71         160.62
         299.55         119.55         199.94         397.52        2533.41         292.93
         134.11          19.46         348.00         308.54        2739.86         663.50
          62.61         137.53         153.49         818.97        2377.35         332.20
         481.62         242.06         512.04         139.81        2174.43         484.99
         379.20         234.05         462.35          81.43        2392.93         893.17
         322.98         203.67         296.89         173.80        2552.63         236.52
         637.78          80.76         321.31         469.97        2040.15         556.37
         255.00         302.95         778.17         250.14        1963.70         312.50
         277.50          43.54         521.25         473.54        2234.12         434.39
         162.24         148.98        1476.86         164.32        1597.56         343.62
         646.53         169.32         111.09         102.60        2520.42         442.29
          78.53         230.55         222.34        1315.49        1703.06         187.30
          62.77         179.74        1506.73         207.31        1593.43         289.18
          52.54          37.18         849.76         560.72        2049.76         288.80
         180.53         251.15         550.44         860.80        1707.02         560.39
         476.56           1.78        1414.58          64.64        1592.40         335.41
         368.98          62.09         430.37         608.09        2080.42         228.53
           5.47          32.23         963.66         606.54        1942.06         325.96
         459.36          52.30          15.05         872.15        2151.09         772.69
         177.09         155.03         368.60         344.03        2505.20         518.61
         437.73          22.39         719.79         441.09        1928.97         656.08
         132.82          78.65         879.72         418.96        2039.80         407.95
         712.13           5.33         154.94         961.50        1716.07         238.08
         721.93         211.39         552.46          67.55        1996.62         785.34
         518.66           7.84         380.84        1081.75        1560.87         201.53
         337.20          85.84          11.69        1145.62        1969.61         388.05
         299.38          20.51         535.99         578.38        2115.72         631.93
         433.83          42.62         929.41         524.34        1619.75         190.80
         416.53           7.57        1175.36         117.87        1832.62         505.86
         592.66           2.29         925.37         222.39        1807.23         376.43
         209.98         162.67         936.44         154.58        2086.30         731.56
         544.54          69.30         633.36          35.55        2267.20         740.74
         103.22         133.50         237.63        1322.05        1753.56         299.01
         385.84          72.45         336.19         341.53        2413.97         261.74
         282.53          10.92        1571.81         361.95        1322.75         277.79
        1188.13          32.24         466.71         175.99        1686.88         386.71
         432.08          89.06         115.25         346.53        2567.04         754.01
         961.88         312.90         313.83          15.27        1946.09         644.82
         295.82         138.03         457.27         427.13        2231.71         394.67
          75.45          72.86        1070.47         408.21        1922.98         432.90
          59.33          15.96        1176.30         568.32        1730.05         512.52
         501.56         250.58         306.37         507.45        1983.99         535.21
         448.75          99.87         979.53         443.41        1578.42         178.97
         112.08         134.84         829.60         979.77        1493.67         296.99
         276.65         112.08         975.49         152.91        2032.85         279.96
         217.07          83.55         329.60         201.21        2718.52         238.12
         405.68          18.24         353.36         858.20        1914.49         380.12
         244.75         205.09         337.98          43.74        2718.40         270.85
         349.27         342.69         160.96         769.49        1927.54         469.26
         151.18         335.96         697.54         660.14        1705.16         350.63
          23.20         126.51          87.74        1350.42        1962.07         561.37
         129.50         244.25        1150.08         272.74        1753.40         573.69
         551.29          18.70         734.14         600.11        1645.73         214.92
         416.56         159.14         485.13         479.87        2009.27         382.57
         653.25          31.09         472.45          76.75        2316.42         669.94
         304.15          90.71          95.79         695.86        2363.42         990.30
         400.65           8.67        1203.27           3.44        1933.95         541.82
         110.89         126.26        1472.82         354.69        1485.30         336.00
         518.82         128.03         341.30         626.02        1935.80         396.01
         257.01         157.91         580.53        1147.83        1406.66         353.75
         179.31          93.64         636.18         786.45        1854.38         348.61
         672.03         168.74         193.51        1114.16        1401.54         355.75
          66.33          86.71         505.44         650.44        2241.05         625.89
         138.01          72.88        1391.17          71.13        1876.76          77.18
         256.29          97.52           6.66        1321.45        1868.04         351.37
         436.48         342.17         230.25         399.40        2141.65         288.07
          15.19          24.85         170.80         457.71        2881.42         327.62
        1149.31          10.63          93.78         700.97        1595.27         414.19
         187.22          96.78         750.73         198.74        2316.50         501.08
         221.75         110.87          12.61         703.06        2501.68         218.38
         197.31         107.72         816.33          17.52        2411.10         706.86
         151.36         157.10         262.95         532.14        2446.42         306.63
         296.54         228.82         214.53         259.22        2550.85         612.45
         632.26          75.29         317.15         198.43        2326.83         611.13
         183.81         107.85        1146.11         277.35        1834.85         199.03
         397.11          38.80         689.15          54.21        2370.70         530.78
         826.27          84.06         616.50         188.16        1834.97         353.11
         629.37           8.41         986.24           1.24        1924.70         549.26
         128.88         155.38        1011.85         200.33        2053.50         758.55
         130.77          54.41           1.47         458.91        2904.38         401.07
         982.23          88.64         246.53         158.72        2073.84         333.67
         399.67         547.74          24.05         299.64        2278.85         592.37
          18.25          28.87         146.71         934.87        2421.28         495.12
         894.66          73.59           3.81         590.76        1987.13         363.65
         317.22          89.41         296.44         864.95        1981.94         187.94
         506.29          28.86         134.42         160.08        2720.31         831.13
         158.25         157.71          50.55         231.35        2952.09         568.38
         452.10          74.53          24.21         119.17        2879.96         337.83
          75.82           4.04           9.95         375.16        3084.99         396.82
         124.56          62.19        1310.88         348.71        1703.63         391.87
          34.16          63.06         424.98         906.92        2120.85         718.07
          39.53         118.58        1166.38         622.69        1602.78         266.49
         155.77          56.35         818.17         521.33        1998.34         284.21
         253.98         187.21          90.36         195.94        2822.46         907.51
         304.69           8.73        1138.04          19.98        2078.53         572.96
         123.69         561.36         415.55         195.22        2254.14         903.21
          36.43          93.73         457.29         318.43        2644.07         539.78
          62.41         171.93        1052.69         281.67        1981.26         784.89
         615.93         257.03          31.83         633.34        2011.83         687.35
         313.23         210.36         675.88         275.20        2075.29         721.23
         369.35           9.68         358.77         101.44        2710.72         490.07
         198.74         149.15         606.34          84.12        2511.59         366.69
         371.31         370.35         283.21         286.54        2238.56         504.00
         184.73         272.08         328.76        1351.04        1413.35         313.67
         320.79         117.98         130.65        1294.52        1686.03         431.04
         216.64          67.46        1183.89         364.78        1717.20         380.61
         164.76         123.73         142.44         170.34        2948.69         633.35
         805.78          30.55         413.59         558.76        1741.26         370.09
         107.73         205.80         376.64         209.82        2649.98         243.02
         107.30         156.46        1157.19         313.68        1815.31         429.38
         321.96         127.29         990.96         399.78        1709.97         797.36
         210.10          79.79         128.83         908.51        2222.73         500.70
         962.84         101.32         394.15         287.96        1803.69         295.40
         188.31         202.60         453.31         848.83        1856.91         307.00
         679.15          45.47         393.88        1311.91        1119.53         175.77
         378.77         134.42         692.65         137.60        2206.54         305.21
          16.15         224.18         844.66         236.84        2228.15         506.31
         532.52          31.44         223.20         798.40        1964.40         549.34
         255.68         129.85          84.49         920.54        2159.41         356.24
         115.28         487.72         469.58         325.20        2152.18         538.53
         190.34         136.50         191.39         441.47        2590.25         983.96
         559.34         155.14         139.62         159.55        2536.32         245.53
         310.65           9.90         141.26        1508.87        1579.28         316.98
         224.54          38.86         867.47         470.42        1948.69         421.64
         576.69          12.42         422.44         540.87        1997.55         173.32
         372.15          87.07           3.39        1330.66        1756.70         473.13
         187.07          50.73          64.98        1395.26        1851.93         725.76
          53.21         103.10         957.79         289.96        2145.91         524.14
