 #HCl ZPE (DMC): 1483.743446, WWW ZPE (DMC): 15602.536472
 #E_given = DMC ZPE + 3550 =21233.1103893624.
 #Dvib = Evib - ZPE
 #D0 = E_given - Erot(W) - Erot(HWW) - Evib(W) + Evib(HWW) -E_COM,E_COM=0
 
     #Erot(HCl)     #Erot(WWW)     #Dvib(HCl)     #Dvib(WWW)             D0         #Speed
         428.63          22.10        -858.76        1324.13        2633.85         443.15
         470.67         365.75       -1164.58        1624.68        2253.45         189.35
         430.41         193.31         578.35         138.57        2209.31         157.85
         457.45         160.06        -130.95         740.67        2322.74         261.47
         394.60          56.16         840.16        -230.74        2489.78         368.93
         358.23         135.74        -808.14        1145.51        2718.64         478.77
         381.93         109.20        -999.73        1566.88        2491.67         363.17
         427.78         182.90        -745.41        1429.67        2255.05         192.57
         422.43         228.67        -288.52         902.65        2284.72         241.89
         478.52          81.54       -1429.50        1990.36        2429.03         329.68
         467.39          45.56        -334.15         710.95        2660.23         443.43
         433.73          23.77        -843.28        1435.28        2500.46         375.19
         440.23         104.80       -1447.10        2142.15        2309.88         242.04
         417.18         166.85        -682.01        1333.08        2314.88         242.71
         454.44          59.32       -1151.24        1925.73        2261.68         211.10
         485.63         152.86       -1407.92        2058.16        2261.23         193.29
         465.31         129.68        -663.83        1386.94        2231.86         166.49
         406.34           7.53         933.62        -584.41        2786.88         508.91
         493.31          49.95        1020.46        -782.75        2768.99         503.75
         412.44         805.01         587.04        -492.30        2237.78         191.15
         388.40           1.08          45.94         891.74        2222.81         157.62
         405.42          39.02        -185.60         735.68        2555.43         391.85
         342.09          24.55        -590.20        1396.51        2377.01         301.42
         419.47         724.39        -498.79         550.67        2354.24         274.19
         416.62         404.37       -1187.68        1499.86        2416.79         329.28
         437.58         133.27        -213.87         830.94        2362.04         287.95
         400.35         167.11       -1120.52        1527.04        2575.96         412.94
         406.72         214.78       -1135.59        1776.01        2288.03         256.32
         526.50         318.33        -946.52        1193.32        2458.33         343.44
         445.60          50.35       -1350.43        1864.84        2539.61         383.99
         450.19         411.14       -1286.09        1628.80        2345.91         280.85
         492.88          19.38       -1135.12        1323.28        2849.53         530.85
         381.39         154.72       -1396.60        2179.27        2231.21         194.36
         443.90         342.92        -293.36         790.35        2266.15         219.71
         417.30          20.46        -439.76        1266.57        2285.40         221.15
         411.55         504.37        -709.76         980.51        2363.28         299.02
         415.37         297.12       -1036.04        1061.21        2812.28         512.89
         407.75         210.29       -1300.09        1520.60        2711.40         478.51
         388.57          20.12        -393.88        1319.22        2215.96         178.25
         410.69         169.55       -1421.40        1972.44        2418.69         311.78
         457.56         105.98        -795.37        1325.17        2456.61         350.82
         443.80         161.62       -1353.75        1988.44        2309.84         232.81
         380.85         182.86        -882.27        1586.48        2282.04         255.97
         368.70          42.52       -1371.99        2149.66        2361.08         297.66
         362.84         258.49          60.55          28.80        2839.29         523.54
         364.19         302.79        -807.31        1416.17        2274.11         218.74
         467.99          59.86        -137.89         873.54        2286.45         213.84
         416.78          48.15        -674.35        1166.10        2593.30         434.08
         459.59         100.83        -848.04        1507.85        2329.75         259.34
         462.45         159.47        -919.70        1117.48        2730.26         483.83
         416.13           3.64       -1309.96        1982.32        2457.83         348.42
         347.78         182.55         152.87         572.98        2293.77         252.12
         464.45         513.84        -943.45        1308.60        2206.50         172.68
         410.23         227.45        -460.90         826.56        2546.61         404.15
         305.05         416.90         840.96        -425.25        2412.30         323.76
         398.28          56.30         469.64         196.41        2429.33         327.75
         449.02         122.43       -1291.89        1790.67        2479.73         363.09
         424.18         100.85         -41.70         613.46        2453.15         338.16
         394.59          55.87        -470.37        1273.67        2296.19         235.65
         374.30           6.41        -502.65        1420.12        2251.78         231.68
         362.35          60.83         369.83         412.22        2344.73         278.71
         437.51          88.91       -1053.34        1437.18        2639.71         438.46
         423.82         197.10        -785.01        1463.21        2250.84         208.62
         469.99         103.83       -1160.17        1651.90        2484.42         359.54
         352.52          93.97        -643.40        1378.00        2368.87         299.65
         438.62          39.97       -1167.52        1995.48        2243.39         164.92
         397.49          12.85         100.21         839.72        2199.70         129.28
         441.08         160.72        -451.37         856.55        2542.98         410.90
         381.45         140.20         337.67         390.77        2299.84         280.50
         401.13         297.77         310.05         265.56        2275.46         215.13
         395.88          65.08        -849.76        1554.14        2384.61         306.37
         535.98         283.32        -542.86         979.29        2294.23         239.37
         345.23         271.27        -427.10         897.21        2463.34         364.36
         413.16         191.47       -1225.06        1771.45        2398.94         309.56
         497.90          73.97       -1365.08        1415.23        2927.93         559.23
         365.93         130.04        -872.33        1650.90        2275.42         209.04
         499.33          18.51       -1428.66        1736.65        2724.13         467.16
         455.71         104.82       -1062.20        1614.94        2436.68         321.93
         416.03         128.84         556.50         219.15        2229.43         165.86
         448.77          49.91        -540.99         981.21        2611.05         421.86
         470.00         129.70        2147.94       -1427.23        2229.55         189.64
         390.80         392.20        -953.42        1273.72        2446.64         342.84
         347.79          29.03       -1088.54        2068.88        2192.77         122.32
         376.81          27.68        -753.02        1705.09        2193.39         120.20
         360.53         232.50        -712.35        1374.07        2295.20         215.74
         529.10         341.55       -1317.73        1771.13        2225.94         176.83
         362.69           3.82        -960.66        1824.25        2319.86         263.95
         312.76         397.13        2398.74       -2042.20        2483.53         389.28
         381.39          80.43         897.20        -383.87        2574.80         416.22
         425.53          15.05          56.09         663.05        2390.24         316.62
         344.70          95.42         630.06          74.86        2404.90         339.75
         368.90         411.23       -1013.15        1167.19        2615.78         431.01
         317.08         223.98         978.35        -166.77        2197.33         129.51
         393.73         155.20       -1433.31        1626.90        2807.44         518.22
         515.06         156.34        -843.82        1469.73        2252.65         214.80
         365.28           7.16        -497.92        1188.32        2487.13         373.82
         386.11         132.98        -598.03        1413.30        2215.61         185.30
         423.03           9.47        -697.24        1346.69        2468.02         357.64
         403.58         112.22        -173.17         821.90        2385.44         303.49
         403.65          41.01        -628.22        1468.46        2265.08         201.74
         358.65         142.82        -654.11         717.79        2984.83         569.23
         425.65         488.53        -827.88        1109.75        2353.91         290.09
         416.36           1.89         863.00        -280.73        2549.46         398.34
         428.22         280.09       -1160.59        1638.94        2363.31         283.24
         455.40          87.25        -196.36         870.28        2333.38         268.79
         385.46         428.55        -395.96         873.87        2258.02         229.51
         387.62         279.39        -698.98         906.89        2675.03         460.82
         295.90          80.05        1746.45       -1064.94        2492.53         371.83
         369.35         312.94       -1230.20        1704.16        2393.71         306.16
         442.78          40.01       -1328.51        1873.80        2521.87         387.58
         382.28         208.55         -95.47         792.42        2262.16         217.75
         366.60         298.85        2135.03       -1764.43        2513.92         406.58
         391.72         237.65       -1400.00        2045.07        2275.51         229.25
         433.44         105.57       -1449.72        1483.69        2976.99         547.37
         443.90          49.50       -1362.18        1917.92        2500.82         359.01
         587.28         134.74         731.00        -664.57        2761.51         491.12
         375.37          13.63        -559.43        1341.05        2379.32         300.81
         494.32         228.52        1187.94        -799.32        2438.51         337.24
         448.33          24.19       -1120.32        1990.49        2207.27         137.59
         454.20         135.47        -984.02        1532.21        2412.11         322.42
         436.58          48.86           1.24         559.05        2504.22         366.79
         368.32          41.97         570.73         320.49        2248.46         197.85
         380.42         329.46       -1477.65        1808.85        2508.86         371.32
         524.57          32.85       -1230.33        1670.98        2551.89         399.57
         468.69          96.51       -1286.87        1927.76        2343.89         251.54
         495.84         418.91        2593.38       -2195.18        2237.01         206.03
         504.46          40.85       -1289.33        1895.33        2398.64         310.56
         467.22          85.94        -531.42         971.85        2556.35         399.59
         440.76         226.42       -1131.37        1670.76        2343.41         279.23
         433.14         267.78       -1416.20        2038.18        2227.06         191.20
         434.21         231.67       -1335.58        1884.01        2335.67         259.65
         406.05         348.20        -297.17         859.27        2233.61         175.04
         529.53          32.09       -1244.26        1987.00        2245.60         230.27
         423.21           3.27          49.11         804.37        2269.99         224.75
         345.78          54.86         128.58         814.94        2205.80         171.19
         383.60           6.25       -1172.41        2137.34        2195.19          90.46
         382.37          24.35         218.32         136.64        2788.28         504.05
         468.79         225.02         777.11         -97.99        2177.03         114.49
         389.04          74.04       -1403.13        1977.96        2512.06         371.34
         478.45         323.94       -1024.29        1357.53        2414.33         334.72
         423.34         164.32         173.52         526.48        2262.31         209.30
         474.13         225.24       -1448.12        2057.09        2241.62         191.10
         418.64         309.84        -842.91        1001.23        2663.14         462.29
         549.57          22.57         -37.59          54.57        2960.84         580.96
         427.16         134.65        -279.44        1035.85        2231.72         176.49
         363.44         257.54         609.58        -160.77        2480.18         366.76
         516.11         563.13       -1287.09        1311.18        2446.64         333.16
         333.47         375.26        1700.47       -1101.59        2242.37         198.35
         466.01          58.48       -1199.42        1882.34        2342.53         276.84
         383.91          99.80       -1095.12        1632.67        2528.70         388.86
         393.87         460.76        -946.76        1330.61        2311.48         257.27
         412.77          54.08       -1439.61        1699.57        2823.16         521.07
         439.11         370.33        -137.95         197.47        2681.01         458.36
         422.19          34.77         431.90         360.70        2300.40         241.05
         471.45          74.39        -992.29        1730.08        2266.32         182.38
         368.12         463.16         272.87         -99.24        2545.05         418.82
         379.11         216.72        -939.81        1511.54        2382.41         294.85
         409.76         139.06        -285.60         918.19        2368.54         309.19
         493.03           5.65       -1339.37        1853.08        2537.59         403.44
         364.69         177.12         -51.23         658.30        2401.09         314.05
         450.87         115.22       -1310.06        1595.61        2698.32         465.45
         399.06          63.17        2038.27       -1114.11        2163.55         143.40
         587.93         206.57         224.85          50.75        2479.85         357.19
         420.69           9.45        -119.06         836.45        2402.43         316.75
         479.26         243.18       -1251.65        1544.14        2535.02         387.76
         368.27         160.96        -658.87        1365.81        2313.79         243.15
         408.96           1.90        -200.30        1156.01        2183.39         112.05
         400.32         216.59        -181.67         828.48        2286.23         226.08
         307.77         209.95         942.68        -876.00        2965.56         561.03
         406.05          68.23        -989.74        1798.84        2266.56         217.77
         481.36          78.75       -1379.25        2163.31        2205.80         142.63
         459.96          26.68        -365.92        1038.93        2390.30         315.40
         317.24         393.34        1011.39        -682.06        2510.05         383.28
         529.69          87.94       -1135.04        1276.23        2791.17         507.76
         458.84          60.92        -724.14        1508.02        2246.34         165.90
         472.38          20.02         326.21         178.37        2552.98         420.07
         451.06          67.41       -1340.46        1937.76        2434.18         326.33
         470.48          60.46        -638.35         808.31        2849.05         529.10
         314.20          11.23        2338.59       -1311.27        2197.21         143.18
         441.71         207.04         667.32        -131.93        2365.81         290.15
         408.33         330.04       -1201.66        1680.78        2332.45         273.70
         491.32         337.89       -1204.72        1669.93        2255.53         212.38
         432.62         254.89       -1063.48        1711.13        2214.81         156.92
         404.72           5.32        1797.85        -870.84        2212.90         158.95
         356.45          91.43         375.19         449.42        2277.48         237.05
         469.54         276.13       -1119.68        1620.20        2303.75         244.77
         440.97         429.48        -766.98         977.44        2469.06         361.53
         365.67         263.40        -273.21         743.08        2451.01         351.90
         400.51          69.22       -1188.14        1773.58        2494.80         375.09
         440.93         167.36        -537.14        1229.50        2249.31         213.60
         371.03          50.24        -211.67         424.51        2915.85         549.38
         636.52         149.65        1628.23       -1151.45        2287.03         201.78
         495.56          21.86        -261.01         792.65        2500.91         366.86
         477.16          61.23       -1427.97        2089.22        2350.31         279.71
         353.19         265.56        -372.91         757.26        2546.87         409.67
         425.20         117.14        -560.63         786.27        2781.98         498.03
         360.38           3.68         731.99         262.08        2191.84         142.64
         437.81         307.69         -35.33         344.49        2495.31         365.31
         474.62         465.43       -1295.91        1445.47        2460.33         361.81
         389.46         238.32         629.14          53.80        2239.24         188.37
         469.16         193.18        -795.01         822.96        2859.67         531.82
         405.75          18.91        -441.06        1272.73        2293.61         234.65
         479.57          33.85       -1394.64        2266.74        2164.45         107.65
         350.80         221.26          13.59         708.17        2256.12         224.21
         394.24         192.09       -1431.55        1967.99        2427.19         330.95
         398.91          55.91       -1465.20        1859.41        2700.93         472.85
         419.78          28.62        -558.12         593.12        3066.55         601.66
         418.75         231.63       -1397.50        1556.75        2740.32         476.73
         382.53         263.39        1075.44        -621.25        2449.85         339.89
         393.72          44.48       -1387.56        2251.42        2247.89         198.68
         403.22         510.84        -653.92        1047.17        2242.63         194.31
         443.47         186.92        -899.10        1286.60        2532.07         385.07
         365.99         131.81        -396.27        1146.33        2302.09         240.79
         434.61          42.47         197.63         412.09        2463.16         364.23
         412.74         292.62       -1099.53        1605.54        2338.60         262.18
         442.44         139.00        -644.20        1311.89        2300.84         250.30
