 #HCl ZPE (DMC): 1483.743446, WWW ZPE (DMC): 15602.536472
 #E_given = DMC ZPE + 3550 =21233.1103893624.
 #Dvib = Evib - ZPE
 #D0 = E_given - Erot(W) - Erot(HWW) - Evib(W) + Evib(HWW) -E_COM,E_COM=0
 
     #Erot(HCl)     #Erot(WWW)     #Dvib(HCl)     #Dvib(WWW)             D0         #Speed
         258.73          96.73        -937.50        1822.85        2309.14         249.56
         193.39         481.66       -1125.88        1321.17        2679.61         462.32
         209.20         111.74        -853.78        1630.59        2452.22         334.88
         221.53         106.41       -1308.43        2327.85        2202.57         171.67
         195.32         345.53       -1420.39        1976.51        2452.99         344.11
         191.19         103.20        2276.01       -1237.87        2217.41         161.88
         186.15         232.17       -1279.89        2190.45        2221.08         182.66
         196.44          75.60        -131.04        1159.64        2249.32         199.24
         234.01         368.43        -436.47         460.39        2923.61         551.95
         199.78         551.80        -717.50        1024.39        2491.48         362.06
         252.85         154.94       -1447.07        2171.47        2417.77         322.62
         174.70          55.71       -1457.88        2549.17        2228.24         201.89
         201.28         608.33        -228.25         528.61        2439.99         335.87
         179.87          54.69        1386.90        -594.32        2522.82         387.96
         195.43         436.12       -1250.56        1344.99        2823.98         517.42
         241.31          10.19       -1382.73        2057.65        2623.53         433.31
         226.22          50.61       -1042.00        1983.61        2331.54         281.93
         187.44         250.11        -688.14        1373.54        2427.01         340.55
         210.32          59.85       -1175.21        2071.23        2383.78         295.02
         195.02         141.95        -569.36        1229.29        2553.07         362.34
         184.79         703.09       -1175.68        1500.13        2337.62         296.45
         217.34          27.74         604.96         448.26        2251.65         181.75
         185.12         388.56       -1190.09        1695.69        2470.69         354.05
         196.06         371.68        -408.60        1008.05        2382.76         296.47
         176.54          54.63       -1338.29        2263.31        2393.76         314.66
         194.92          31.07         451.75         492.28        2379.92         302.49
         230.84         383.52       -1482.88        2009.53        2408.96         310.42
         199.54         140.75       -1437.82        2322.61        2324.88         250.84
         176.50         154.01       -1156.18        2102.61        2273.03         226.62
         244.17           0.81       -1398.46        2371.97        2331.48         278.60
         181.41         140.80        -890.71        1923.18        2195.27         162.68
         149.96         398.02          32.79         187.20        2781.98         499.91
         171.24          57.01       -1214.98        2126.54        2410.13         313.13
         258.58         132.03       -1396.48        1983.56        2572.28         403.31
         142.72         181.83        2913.84       -1921.40        2232.96         177.06
         253.57          28.93       -1178.07        2059.40        2386.15         315.07
         240.31          34.39        -846.09        1770.43        2350.92         279.11
         173.62         101.42       -1471.45        2526.56        2219.82         142.39
         214.94          43.15          86.72         349.11        2856.06         525.39
         285.10          21.46        1041.58        -272.34        2474.17         365.12
         281.58         310.62        -950.36        1694.84        2213.27         179.15
         255.60         156.19       -1009.26        1516.10        2631.33         449.18
         204.97          12.66       -1212.17        1714.94        2829.58         518.88
         185.94          38.89        -100.98         826.48        2599.64         421.53
         185.32           2.15        -771.40        1827.72        2306.18         238.13
         223.78           4.50        -661.26        1523.40        2459.54         352.70
         166.24          18.89       -1416.86        2558.39        2223.29         170.33
         170.15         355.47        -701.25        1249.41        2476.18         353.77
         207.75          31.76        -874.45        1615.31        2569.60         401.11
         217.47         422.06         179.31         450.20        2280.92         199.67
         170.19         133.85        -695.82        1569.00        2372.76         300.54
         148.60         103.51         448.61         330.56        2518.69         378.66
         156.66         399.27        -131.54         878.79        2246.79         225.45
         148.67         118.32        -705.70        1354.01        2634.68         432.02
         170.96         202.58        -194.86        1056.17        2315.11         252.35
         242.72          11.69        -569.55        1522.47        2342.64         282.95
         241.08         112.26       -1084.43        1788.19        2492.85         367.87
         218.34         126.63        -419.86        1360.52        2264.34         206.40
         213.17         215.91        -623.80        1207.26        2537.43         390.90
         233.37         467.83       -1023.70        1581.97        2290.48         230.66
         216.99         582.31        -335.25         305.89        2780.00         503.44
         239.21         132.75        -101.07         369.09        2909.98         564.54
         165.53         127.31       -1004.94        2068.83        2193.23         109.54
         203.60         107.92       -1420.55        2366.89        2292.09         234.49
         261.67          74.04        -682.89        1409.25        2487.88         369.17
         227.59          20.09       -1301.80        2191.07        2413.00         319.06
         185.11         209.35        -335.50        1143.47        2347.51         287.89
         185.24         100.81       -1134.43        2081.68        2316.66         252.02
         156.17          67.09        -125.49        1218.74        2233.46         177.88
         188.04          52.49         153.37         875.34        2280.72         218.23
         188.48           8.27       -1248.32        2126.84        2474.69         355.78
         173.07         155.16         369.51         430.71        2421.50         336.17
         228.81         226.65       -1185.16        1961.66        2318.01         265.61
         215.22         347.14       -1108.64        1719.68        2376.55         316.63
         254.06         148.09         545.20         330.54        2272.09         229.08
         159.30         491.26        -973.61        1645.20        2227.80         184.59
         170.42          73.29       -1125.32        2120.91        2310.67         247.83
         206.67          15.02         916.04         168.89        2243.35         191.66
         248.62         113.55        -490.06        1192.26        2485.59         390.61
         235.03         244.05       -1240.28        2050.99        2260.19         190.83
         187.98         173.86        -970.25        1754.78        2403.57         323.92
         285.66         139.23        1708.11        -969.00        2385.96         305.57
         208.83          60.35        -212.95        1123.75        2369.99         302.94
         178.25         122.97       -1260.17        2162.69        2346.22         268.78
         212.76          91.35       -1427.00        1855.19        2817.65         517.12
         180.98           5.94        -874.57        1911.77        2325.84         272.40
         172.93          77.82       -1238.83        2146.32        2391.72         296.15
         218.41         531.38        -451.62         935.69        2316.10         250.76
         210.71         102.49        -279.87        1249.81        2266.81         214.73
         207.00           3.00       -1362.52        2400.42        2302.08         242.34
         161.23          42.13         583.11         352.47        2411.02         323.00
         198.36          15.98        -757.23        1695.82        2397.04         311.52
         217.89         380.78       -1082.47        1821.95        2211.81         179.49
         187.86         148.28        1640.89        -799.79        2372.73         296.02
         186.95           5.68        -418.40        1514.11        2261.61         211.12
         194.74         328.85       -1277.58        1952.37        2351.56         274.79
         186.13          14.83       -1223.56        2353.40        2219.15         179.20
         191.79          31.00        -526.44        1593.18        2260.44         205.80
         248.45         241.66        -167.92         714.39        2513.38         380.31
         200.13         201.25        -782.16        1599.14        2331.59         274.50
         172.19          93.73         174.90         804.99        2304.15         245.15
         194.96          18.05        -261.07        1383.15        2214.88         146.69
         195.50         116.55        -476.72        1394.04        2320.61         262.95
         192.02         173.87        -826.88        1299.31        2711.63         472.32
         256.20          56.59       -1470.68        2064.02        2643.84         447.73
         294.47          95.30        -497.72        1282.63        2375.27         296.76
         165.25         127.19         129.70         817.98        2309.84         239.80
         150.33          42.05        -175.72        1370.85        2162.46          64.33
         186.99         393.75       -1049.07        1688.35        2329.93         257.69
         195.93           2.91       -1160.56        1808.92        2702.76         467.53
         185.02         108.22        -106.90         500.69        2862.92         537.52
         169.22         693.54        -131.09        -128.59        2946.89         573.30
         142.01         310.14         606.00        -209.19        2700.99         470.31
         196.35          20.88       -1263.73        1817.16        2779.31         497.04
         190.36         610.16        -350.90         754.94        2345.40         302.27
         226.71           3.07       -1027.91        2112.49        2235.61         167.71
         219.01         351.30         145.73         489.94        2343.98         276.17
         225.18         238.02         423.44         463.65        2199.68         174.45
         170.75         131.35        2070.26       -1091.00        2268.61         202.17
         209.70         475.51       -1082.15        1715.40        2231.49         187.26
         194.25         100.05       -1160.33        2129.43        2286.56         229.75
         210.56          18.31        -210.71        1253.67        2278.15         207.99
         190.18         105.33        -660.76        1481.01        2434.19         329.23
         177.05          78.70       -1269.96        1905.46        2658.72         463.21
         261.54         127.18        -967.57        1760.34        2368.46         297.05
         189.09          59.67        -280.93         925.37        2656.76         446.36
         218.53          78.67        -559.37        1439.97        2372.15         309.06
         186.98          36.41       -1109.81        1987.74        2448.65         346.11
         187.88         816.32        -407.61         375.63        2577.73         415.27
         218.30         298.39       -1185.53        1541.49        2677.31         465.79
         161.69         772.33        -365.26         118.67        2862.51         541.53
         250.32          60.84       -1253.63        2245.99        2246.45         169.60
         149.25         170.61        -676.05        1659.96        2246.18         186.32
         173.77           3.79       -1249.30        2409.21        2212.47         159.82
         256.42         115.04       -1433.59        2271.56        2340.54         271.05
         189.50         277.49        -973.77        1843.54        2213.19         116.61
         170.52         215.89        -895.33        1802.23        2256.67         194.80
         186.46         888.95        -344.50         571.76        2247.29         204.51
         201.10          79.00        -293.99         696.25        2867.60         534.76
         195.29           0.89       -1338.44        2379.59        2312.63         257.06
         171.35          60.61        -810.05        1927.30        2200.75         122.16
         261.43         200.99        -201.32         981.33        2307.52         253.35
         217.03         475.14        -788.21        1405.02        2241.01         180.73
         205.23         117.90        -185.19        1023.77        2388.25         323.78
         233.10         126.81        1156.52        -601.27        2634.79         434.18
         166.06          29.90       -1306.65        2392.06        2268.59         224.22
         204.62         109.04         142.50         178.52        2915.29         559.50
         224.70           7.85        -390.96        1211.04        2497.36         357.74
         230.98         632.56       -1375.55        1813.90        2248.06         207.48
         188.11           8.69       -1389.99        2453.97        2289.17         231.18
         230.20          45.78        -480.49        1479.67        2274.80         205.07
         249.52         714.02       -1107.95         456.83        3237.53         655.46
         188.70          19.32       -1160.68        2050.92        2451.72         353.60
         160.33         152.92       -1345.17        2251.94        2329.94         255.31
         218.11          27.39       -1345.17        2270.56        2379.08         299.94
         173.43          67.39         621.64          33.55        2653.95         448.66
         159.04         144.32        1195.04        -920.38        2971.93         568.38
         229.92         202.81        -981.76        1044.70        3054.27         601.32
         147.58         299.21        -232.06         890.60        2444.65         341.30
         226.00         194.87       -1396.06        2320.45        2204.71         154.34
         210.78         628.43        1126.17        -938.85        2523.42         395.46
         241.16         153.48         -83.92         975.80        2263.42         203.39
         244.37          29.81       -1045.99        1935.93        2385.84         306.87
         201.26          17.53        -471.13        1625.99        2176.32          92.46
         169.69          21.79       -1421.20        2406.98        2372.72         288.09
         171.43         593.96       -1457.60        1906.61        2335.57         268.85
         247.95         685.07       -1030.11        1251.58        2395.45         318.05
         150.69          13.22         182.08         979.43        2224.55         155.27
         237.50         498.32       -1120.81        1460.97        2473.98         359.41
         161.07          17.78       -1097.06        2276.23        2191.94         116.60
         165.71          28.32        1635.74        -753.82        2474.01         354.01
         225.67         155.35       -1162.55        1677.30        2654.19         444.98
         150.75         305.61         172.54         700.58        2220.50         207.47
         166.07         190.13        -463.55         842.98        2814.33         517.36
         220.40         273.98       -1257.53        1974.30        2338.81         263.58
         212.32         180.16       -1398.97        1808.18        2748.26         492.66
         197.37          35.04       -1453.66        2328.29        2442.92         340.66
         156.42         142.81        -371.04        1219.36        2402.43         304.91
         260.75          26.46         336.90         542.35        2383.52         309.35
         234.09         383.75       -1472.88        1728.45        2676.54         464.10
         227.52         272.36        -995.07        1585.19        2459.96         370.25
         252.57         224.69         294.74         448.27        2329.68         267.10
         181.55         190.64       -1188.68        1070.11        3296.35         670.83
         218.88          23.32       -1289.32        2133.16        2463.91         350.58
         230.48         222.22        -499.91        1383.25        2213.92         134.29
         158.74          63.80        -579.40         974.99        2931.84         550.03
         222.23          31.29         -45.88         525.09        2817.24         519.23
         197.91         398.73       -1370.08        1906.50        2416.92         325.01
         195.23         221.86        2031.34       -1187.02        2288.55         211.73
         185.57         261.09        -105.96         827.30        2381.97         312.95
         183.56         190.30         886.99        -578.22        2867.32         537.35
         187.09         649.72       -1288.26        1756.49        2244.90         210.88
         168.56         259.64        -929.12        1823.12        2227.77         191.07
         263.37          42.79        -515.84        1499.43        2260.22         190.59
         241.36         531.87       -1135.66        1111.55        2800.85         506.55
         264.74         266.66       -1386.65        1732.71        2672.49         456.41
         199.35         130.57        1093.56        -190.28        2316.76         262.85
         206.34         325.50       -1046.71        1488.21        2576.60         405.90
         176.30          74.70         444.11         392.42        2462.42         349.98
         175.03         110.27       -1019.44        1912.72        2371.38         298.13
         214.97         130.04       -1342.04        2039.14        2507.86         366.45
         219.58         228.66         292.91          18.34        2790.48         500.24
         231.21        1309.65       -1215.55         426.60        2798.04         507.90
         275.38         248.66        -586.53        1200.84        2411.63         323.73
         268.31           4.20        -434.54        1284.58        2427.41         344.23
         183.85          30.68          34.09         909.64        2391.68         303.48
         203.34         257.95        -110.36         916.22        2282.80         235.16
         159.83          65.87       -1344.00        2359.24        2309.04         251.02
         150.35         208.13         132.41         624.67        2434.41         345.78
         238.45         108.41        -721.40        1554.25        2370.25         294.96
         221.13         102.23        -511.34        1069.99        2667.95         446.80
         224.59         241.95        1597.15        -798.04        2284.32         242.93
         274.96         126.98        2811.82       -2042.75        2378.96         311.94
         130.06         385.25        1867.55       -1066.29        2233.39         185.71
         233.31           8.44        -656.45        1698.16        2266.49         224.88
         237.19          53.11         157.84         828.72        2273.10         220.60
