 # HCl ZPE restriction,  Energy (cm-1), speed (m/s)
 #HCl ZPE (DMC): 1483.743446, WWW ZPE (DMC): 15602.536472
 #E_given = DMC ZPE + 3550 =21233.1103893624.
 #Dvib = Evib - ZPE
 #D0 = E_given - Erot(W) - Erot(HWW) - Evib(W) + Evib(HWW) -E_COM,E_COM=0
 
     #Erot(HCl)     #Erot(WWW)     #Dvib(HCl)     #Dvib(WWW)             D0         #Speed
         482.24           7.83         551.17         290.89        2217.83         151.61
          40.27         342.53        1326.89       -1371.19        3211.45         648.93
         578.54          41.03        1547.44       -1056.70        2439.65         336.59
          95.99          38.03        1632.40        -785.07        2568.62         417.83
         430.41         193.31         578.35         138.57        2209.31         157.85
         751.21         814.25        1206.25       -2709.13        3487.37         727.85
         115.00          80.88         661.37          59.32        2633.39         434.47
          29.03         122.65        1111.43          80.51        2206.37         159.75
        1011.52         834.96         309.99       -1211.29        2604.77         429.14
         191.19         103.20        2276.01       -1237.87        2217.41         161.88
         394.60          56.16         840.16        -230.74        2489.78         368.93
         342.32         179.06          64.03         704.63        2259.93         203.14
         408.06         178.90         226.76         454.32        2281.91         253.75
         179.87          54.69        1386.90        -594.32        2522.82         387.96
         610.55         204.03         422.95          14.87        2297.58         252.54
         263.15         276.30         868.00        -205.10        2347.60         272.79
         142.79          22.17         552.74        -433.41        3265.67         680.92
         473.36          94.95         942.00        -285.56        2325.20         271.24
          81.05         176.33         133.72         604.02        2554.84         397.07
          76.02         131.32         979.32        -514.75        2878.05         539.98
         314.23         228.08         393.77           6.22        2607.65         430.45
         109.08         127.24          98.58         929.51        2285.58         234.67
         208.45         371.06         909.68        -292.50        2353.28         285.64
         102.34           8.57         684.55        -211.02        2965.53         566.16
          15.12          41.36        1057.84         200.02        2235.62         176.94
         194.92          31.07         451.75         492.28        2379.92         302.49
          17.92          44.26         882.67        -151.81        2756.93         492.67
         315.38          73.95         655.63        -223.19        2728.19         479.08
          27.05         234.47        1810.51        -930.23        2408.17         318.61
          32.60          13.81         392.62         830.85        2280.09         225.98
        1318.32         318.99        2054.95       -2654.66        2512.35         388.06
          71.72         163.32        1229.09        -327.85        2413.67         307.60
         170.01         378.15        1037.91        -264.69        2228.57         167.61
          26.49         753.81          76.11         130.94        2562.62         412.79
         235.50         158.59         545.79         203.51        2406.55         326.85
         480.52          67.60          96.07          78.70        2827.08         516.21
          29.04          30.48         626.81         612.99        2250.66         179.58
         127.38         947.16        1189.88       -1014.99        2300.54         235.86
          32.28         374.90        1282.68        -573.19        2433.30         344.10
           6.09         351.20         166.40         734.28        2292.00         263.02
          99.59         669.31        1548.00       -1184.30        2417.33         332.26
         153.57          82.47         215.56         612.26        2486.10         354.37
         432.60         512.21         268.40         -78.13        2414.87         324.09
         406.34           7.53         933.62        -584.41        2786.88         508.91
         493.31          49.95        1020.46        -782.75        2768.99         503.75
         465.26         411.17        1887.47       -2190.23        2976.29         577.45
          62.36         420.82        1186.60        -446.41        2326.59         250.76
         412.44         805.01         587.04        -492.30        2237.78         191.15
         409.45          38.10        1699.31        -952.19        2355.30         272.23
         569.46         258.56           5.14         398.18        2318.62         302.25
         148.60         103.51         448.61         330.56        2518.69         378.66
         388.40           1.08          45.94         891.74        2222.81         157.62
           2.30         117.30         802.99         151.08        2476.30         370.25
         992.50         369.82        1967.13       -2379.16        2599.65         431.41
        1348.10          62.70         456.43        -806.45        2489.15         375.65
          19.78         549.02         792.44        -192.92        2381.66         309.26
          81.81          65.09         155.28         809.38        2438.42         340.74
         116.39          85.35         654.49         436.71        2257.02         231.32
         267.41         141.31        1658.28       -1361.70        2844.65         535.83
          73.95         647.28        3287.17       -2862.73        2404.29         332.36
          92.34         128.64        1730.94        -580.24        2178.27         132.62
          97.85         445.41        1332.76        -550.71        2224.66         164.33
         812.20         259.24         227.73        -275.89        2526.67         377.64
         844.87          34.32         252.07         229.65        2189.06         106.40
         315.25         328.99         459.93          38.80        2407.00         321.62
         700.06         156.53         102.93         164.77        2425.66         344.63
         591.39         304.98         675.97        -630.91        2608.53         433.40
         109.10           0.24        1106.80        -157.24        2491.07         364.63
         275.78         540.29        2353.81       -1840.36        2220.45         203.96
           3.27         673.32         738.41        -113.59        2248.54         202.32
         173.07         155.16         369.51         430.71        2421.50         336.17
         268.86         153.30         407.33         396.62        2323.88         273.32
         127.41         134.24        1001.29          80.92        2206.13         128.98
          28.91         136.84         189.85         452.20        2742.15         481.57
         254.06         148.09         545.20         330.54        2272.09         229.08
         166.47         248.23         216.75          79.90        2838.61         516.51
         371.25         122.87         293.52          67.81        2694.51         478.05
         206.67          15.02         916.04         168.89        2243.35         191.66
         320.34         130.01         360.40         555.83        2183.37         119.10
         135.32          70.12         265.55         729.59        2349.39         292.07
         163.52          78.42         622.36         415.92        2269.75         272.35
          83.65         302.86        1628.09       -1147.58        2682.94         461.20
          94.55          39.25        1596.20        -989.32        2809.29         504.93
          35.55          72.34         784.41         181.96        2475.71         347.53
         149.67         197.79         971.82        -190.14        2420.81         320.79
         110.36         645.46         448.19        -349.19        2695.13         468.99
         823.41         184.32         479.01        -201.52        2264.73         237.52
          19.90          29.76         461.44         756.67        2282.20         243.21
          51.15         482.06         264.07         431.85        2320.81         298.19
         720.61         425.08         607.24        -814.90        2611.92         440.53
         362.84         258.49          60.55          28.80        2839.29         523.54
           8.68          88.99         894.22          44.91        2513.16         376.48
         285.66         139.23        1708.11        -969.00        2385.96         305.57
           5.69         176.64        1159.58        -156.76        2364.83         303.38
          47.59           2.28         671.84         -39.71        2867.98         534.23
         119.88          92.75         255.37         481.38        2600.57         426.57
         467.00         212.36        1295.72       -1858.26        3433.14         721.99
        1501.34         119.81         678.08       -1526.19        2776.93         502.68
        1011.86          75.80          33.87          16.59        2411.82         308.93
         161.23          42.13         583.11         352.47        2411.02         323.00
         150.77         373.61         744.52        -180.00        2461.07         351.86
         161.46          28.93         613.31         358.10        2388.17         322.98
         480.18         273.80        1058.89        -822.75        2559.84         398.34
           3.29         141.35         174.20        1030.74        2200.38         144.36
          94.97         175.73        1972.41        -904.29        2211.15         162.43
         703.28         144.07         399.58        -180.76        2483.79         370.08
         508.60           1.94        1976.50       -1448.68        2511.59         377.63
         347.78         182.55         152.87         572.98        2293.77         252.12
          53.80         281.53         662.01         -93.95        2646.58         440.60
         187.86         148.28        1640.89        -799.79        2372.73         296.02
         530.00         204.63        1830.78       -1304.06        2288.61         259.68
         273.73         226.71        1039.01        -460.40        2470.93         357.04
         129.44         357.06         485.84         303.15        2274.47         216.68
         305.05         416.90         840.96        -425.25        2412.30         323.76
         398.28          56.30         469.64         196.41        2429.33         327.75
          67.56           0.52         158.92         682.76        2640.22         437.36
          83.20         173.48         500.93         580.61        2211.75         166.47
         188.04          52.49         153.37         875.34        2280.72         218.23
         317.76         594.25          45.95         338.61        2253.38         195.23
          86.35         114.30         203.77         894.96        2250.57         204.85
         684.88         120.30         832.47        -419.29        2331.60         262.52
         677.29         104.00         417.32          80.50        2270.84         224.67
          90.97          44.79         561.50          45.95        2806.76         510.99
         340.75          48.64          87.45         776.02        2297.10         241.15
         992.22         106.14         342.30         -71.74        2181.04          93.77
         359.80          60.79        1129.29        -895.53        2895.60         541.91
         217.34          27.74         604.96         448.26        2251.65         181.75
         136.19         100.52        1662.70        -674.61        2325.17         266.83
          10.29          13.58         849.98         493.00        2183.09         123.58
         310.25          97.60         742.64        -104.70        2504.19         388.51
         362.35          60.83         369.83         412.22        2344.73         278.71
         140.94          54.73        1203.86        -270.54        2420.99         334.76
          45.81          37.49         795.72         104.86        2566.08         411.00
         591.42         591.42         166.94        -327.67        2527.86         382.26
          14.62         150.87         764.27        -543.37        3163.57         636.02
          54.55          76.21          62.57         740.70        2615.94         431.03
         217.47         422.06         179.31         450.20        2280.92         199.67
         113.95         283.63        1868.10       -1145.32        2429.61         324.06
         214.94          43.15          86.72         349.11        2856.06         525.39
          22.71         206.85        2270.78       -1258.70        2308.32         247.08
         122.95         207.91         215.18         461.47        2542.45         409.23
         285.10          21.46        1041.58        -272.34        2474.17         365.12
         361.32         190.35         200.99         561.11        2236.18         187.80
         526.36         361.13        1789.10       -1642.30        2515.67         381.93
          54.37         206.91         907.41         147.24        2234.03         179.96
         397.49          12.85         100.21         839.72        2199.70         129.28
         507.08          14.72        1682.82        -961.72        2307.07         269.46
         381.45         140.20         337.67         390.77        2299.84         280.50
         106.00         252.44         640.05         277.95        2273.50         237.38
         248.30         227.14         148.83         723.25        2202.45         155.58
         962.71         401.97         422.06        -555.74        2318.96         263.79
         401.13         297.77         310.05         265.56        2275.46         215.13
         149.96         398.02          32.79         187.20        2781.98         499.91
          15.12          61.79         336.07         883.97        2253.02         168.93
         142.72         181.83        2913.84       -1921.40        2232.96         177.06
         890.79          58.29         519.15        -228.23        2309.94         250.57
         220.37         509.82         865.15        -481.27        2435.89         346.77
         263.68         569.69         505.36        -508.80        2720.03         479.91
         136.14         248.95         148.36         263.65        2752.86         485.06
           6.90         153.17        3090.26       -1997.65        2297.28         221.51
          68.04         275.92        2403.54       -1943.52        2745.97         489.89
         198.77         260.95         713.27         153.89        2223.08         158.94
          73.81         249.59         689.54          89.89        2447.14         340.05
         269.38          98.55         676.64        -395.26        2900.67         542.48
         176.13         479.88         813.54       -2099.28        4179.69         899.82
          92.29          58.36        1268.31        -139.91        2270.92         228.12
          37.46          39.12          19.73         837.23        2616.43         428.04
         127.57         894.25          44.01        -415.00        2899.12         555.00
          30.72          15.84          97.67         861.66        2544.08         405.82
         335.96          11.20         487.99         494.77        2220.05         154.26
          15.13          94.58         255.20         496.20        2688.86         464.04
         296.99           3.53         129.73         899.53        2220.18         163.78
          95.93          68.49        1013.40         198.90        2173.26          93.12
         162.60         372.75         954.32        -888.94        2949.22         561.50
          51.51         158.72         115.47         393.69        2830.57         519.12
          92.99         280.94         571.04         290.47        2314.52         263.63
         234.42         931.29          61.44        -293.38        2616.17         437.73
         289.48         174.98        1981.52       -1157.65        2261.63         212.85
         416.03         128.84         556.50         219.15        2229.43         165.86
         240.81         278.71         347.76        -381.89        3064.57         600.75
         612.59          97.10         564.56          40.63        2235.09         176.46
          85.32         690.34        1148.59        -674.02        2299.73         234.94
          13.33          10.71         185.31        1089.56        2251.07         207.82
          96.62         234.07         777.43        -678.98        3120.82         629.10
         248.79         325.43         563.13          71.58        2341.03         266.97
         706.40         208.19        3192.75       -3064.74        2507.35         368.96
         129.39          47.25          61.59         608.19        2703.54         469.58
         470.00         129.70        2147.94       -1427.23        2229.55         189.64
         223.67         460.45         173.33         477.95        2214.56         174.30
         551.13          22.02         229.63         225.47        2521.70         374.70
          15.68         198.55        1308.97        -369.34        2396.09         318.04
         100.34          79.14        1287.84        -188.40        2271.05         231.54
          53.73         117.04         474.68         614.75        2289.78         235.62
         312.76         397.13        2398.74       -2042.20        2483.53         389.28
         381.39          80.43         897.20        -383.87        2574.80         416.22
         263.00          83.11        1806.36       -1161.73        2559.24         397.23
         338.14         304.39        1208.23       -1250.92        2950.13         558.51
          55.68           1.45        1377.31        -463.82        2579.35         416.14
         109.81         212.96         809.98        -993.33        3410.53         721.16
         425.53          15.05          56.09         663.05        2390.24         316.62
         344.70          95.42         630.06          74.86        2404.90         339.75
           1.14         234.08         948.75        -401.26        2767.26         504.08
          80.20          99.56        2052.67        -903.24        2220.76         163.01
         259.25         240.85         325.91         375.39        2348.53         298.94
         195.34         140.83        2320.87       -1519.36        2412.30         330.32
         380.12          84.44          31.80         735.59        2318.00         254.65
          54.42         111.22         385.48         194.51        2804.32         515.67
         856.64          32.34        2021.68       -2021.02        2660.32         447.34
         573.06           8.62        1015.20        -505.37        2458.46         351.20
         121.88          17.63         167.16        1053.63        2189.67         137.90
          11.45          99.93         246.91         230.76        2960.92         571.78
          83.08         312.73         331.32         639.57        2183.25         110.20
         317.08         223.98         978.35        -166.77        2197.33         129.51
         295.81          73.61         849.84          10.97        2319.74         256.04
         122.98         115.53        1731.15        -656.21        2236.52         195.45
         333.06         119.83        1383.77        -770.93        2484.24         351.27
