 # Soft ZPE restriction, Energy (cm-1), speed (m/s)
 #HCl ZPE (DMC): 1483.743446, WWW ZPE (DMC): 15602.536472
 #E_given = DMC ZPE + 3550 =21233.1103893624.
 #Dvib = Evib - ZPE
 #D0 = E_given - Erot(W) - Erot(HWW) - Evib(W) + Evib(HWW) -E_COM,E_COM=0
 
     #Erot(HCl)     #Erot(WWW)     #Dvib(HCl)     #Dvib(WWW)             D0         #Speed
         105.64          59.75       -1106.15        2282.81        2207.92         126.23
         530.00         204.63        1830.78       -1304.06        2288.61         259.68
         653.69          99.52        -838.38        1013.36        2621.76         426.18
          53.10          25.35        1305.54        -125.47        2291.45         222.00
         482.24           7.83         551.17         290.89        2217.83         151.61
         300.65         497.30        -698.18         836.66        2613.52         424.62
         578.54          41.03        1547.44       -1056.70        2439.65         336.59
           0.02          50.74       -1144.47        2274.79        2368.88         284.84
         322.98          93.94       -1259.66        2195.03        2197.67         116.13
          95.99          38.03        1632.40        -785.07        2568.62         417.83
         104.89         250.11        -916.95        1852.64        2259.28         210.27
         428.63          22.10        -858.76        1324.13        2633.85         443.15
         328.52          42.33       -1243.74        2102.47        2320.39         253.05
         534.61         202.39       -1039.83        1543.28        2309.50         261.61
         470.67         365.75       -1164.58        1624.68        2253.45         189.35
         654.17         218.21        -365.65         821.10        2222.13         152.69
         430.41         193.31         578.35         138.57        2209.31         157.85
         258.73          96.73        -937.50        1822.85        2309.14         249.56
         556.24          34.13        -365.57        1068.71        2256.44         173.96
         115.37         138.05        -636.57        1157.51        2775.60         488.42
         445.91          34.16        -122.43         776.76        2415.56         328.31
         193.39         481.66       -1125.88        1321.17        2679.61         462.32
          39.23          79.17        -716.03        1867.42        2280.19         214.71
         209.20         111.74        -853.78        1630.59        2452.22         334.88
         586.99         260.90       -1440.44        1725.35        2417.16         328.66
         835.21          15.29        -558.53         855.43        2402.56         308.67
          85.86          44.35       -1227.66        2293.82        2353.60         275.40
          76.11         238.01       -1069.78        1842.69        2462.94         339.31
          29.17         429.87        -447.35        1263.23        2275.04         212.24
         426.69          91.44        -293.50         990.04        2335.29         269.16
          83.23         146.45        -331.47        1354.95        2296.80         237.93
          98.39          59.09        -634.64        1629.34        2397.81         298.96
         739.10         112.27        -491.48         639.89        2550.20         393.16
         135.19          51.24       -1013.77        2196.72        2180.59          95.61
          91.35          27.20        -866.65        1887.96        2410.10         317.90
         221.53         106.41       -1308.43        2327.85        2202.57         171.67
         350.81           5.68       -1206.44        2147.41        2252.49         205.44
          94.94         409.41        -435.41         529.64        2951.39         560.90
         457.45         160.06        -130.95         740.67        2322.74         261.47
          90.74         166.37        -406.59        1386.12        2313.32         249.16
         115.00          80.88         661.37          59.32        2633.39         434.47
          29.03         122.65        1111.43          80.51        2206.37         159.75
          28.26         296.03        -176.17        1077.37        2324.48         270.18
         195.32         345.53       -1420.39        1976.51        2452.99         344.11
         191.19         103.20        2276.01       -1237.87        2217.41         161.88
         394.60          56.16         840.16        -230.74        2489.78         368.93
         635.44         114.95        -541.04         932.98        2407.62         316.53
         342.32         179.06          64.03         704.63        2259.93         203.14
           1.82         182.19       -1461.23        2357.60        2469.58         364.57
         186.15         232.17       -1279.89        2190.45        2221.08         182.66
         196.44          75.60        -131.04        1159.64        2249.32         199.24
         234.01         368.43        -436.47         460.39        2923.61         551.95
         199.78         551.80        -717.50        1024.39        2491.48         362.06
         252.85         154.94       -1447.07        2171.47        2417.77         322.62
          41.09         148.64        -379.63        1364.11        2375.75         298.03
          67.72         114.66       -1475.09        2501.29        2341.38         283.85
         285.58          62.44       -1279.17        2187.02        2294.08         234.99
         513.15          71.50        -926.19        1468.55        2422.94         336.61
         174.70          55.71       -1457.88        2549.17        2228.24         201.89
         668.31           8.97        -936.23        1198.72        2610.19         441.75
          66.43         191.33        -683.18        1543.93        2431.47         337.49
         110.34         771.94       -1387.80        1501.33        2554.13         399.85
           7.14         385.85        -336.39        1237.95        2255.42         191.25
         331.85         717.60        -777.53         899.68        2378.36         293.49
          59.03         252.94        -535.45        1513.88        2259.54         220.72
         263.59         154.08       -1159.97        1652.41        2639.86         449.45
         201.28         608.33        -228.25         528.61        2439.99         335.87
         140.27          34.34        -746.81        1783.62        2338.53         273.60
         408.06         178.90         226.76         454.32        2281.91         253.75
         179.87          54.69        1386.90        -594.32        2522.82         387.96
         610.55         204.03         422.95          14.87        2297.58         252.54
         286.09          73.29       -1193.74        2092.04        2292.27         257.67
         164.16          97.54        -857.42        1741.53        2404.14         322.67
         126.72         136.69        -312.25        1350.85        2247.94         198.57
         195.43         436.12       -1250.56        1344.99        2823.98         517.42
         263.15         276.30         868.00        -205.10        2347.60         272.79
          56.44         230.41        -758.90        1602.31        2419.70         342.79
         358.23         135.74        -808.14        1145.51        2718.64         478.77
         142.79          22.17         552.74        -433.41        3265.67         680.92
         138.28         939.72       -1086.34        1151.97        2406.33         324.94
         856.61          47.55       -1054.77        1395.12        2305.43         255.60
         381.93         109.20        -999.73        1566.88        2491.67         363.17
         241.31          10.19       -1382.73        2057.65        2623.53         433.31
          21.80          72.58        -823.77        2076.40        2202.96         127.21
         473.36          94.95         942.00        -285.56        2325.20         271.24
          81.05         176.33         133.72         604.02        2554.84         397.07
         273.73         226.71        1039.01        -460.40        2470.93         357.04
          86.24          81.56        -998.05        2136.01        2244.19         181.73
         129.44         357.06         485.84         303.15        2274.47         216.68
         464.45         513.84        -943.45        1308.60        2206.50         172.68
         410.23         227.45        -460.90         826.56        2546.61         404.15
         100.72          55.32        -340.35        1513.58        2220.72         170.79
         305.05         416.90         840.96        -425.25        2412.30         323.76
          51.70          50.17        1189.21          25.23        2233.65         197.97
         638.66         159.41         -27.16         517.01        2262.04         204.20
         119.29          26.06        -318.67        1315.79        2407.49         308.67
         226.22          50.61       -1042.00        1983.61        2331.54         281.93
         165.42          43.05        -908.31        1876.54        2373.27         307.66
         543.31         165.90       -1315.33        1540.66        2615.40         427.71
         125.82         476.31        -351.10         724.80        2574.13         412.97
         542.26         178.33       -1150.57        1369.37        2610.55         436.20
          76.02         131.32         979.32        -514.75        2878.05         539.98
         187.44         250.11        -688.14        1373.54        2427.01         340.55
         327.46         179.03       -1318.97        1844.55        2517.89         378.41
         314.23         228.08         393.77           6.22        2607.65         430.45
         145.91         121.72       -1392.87        2200.93        2474.28         362.02
         398.28          56.30         469.64         196.41        2429.33         327.75
          92.23          83.02        -822.63        1660.17        2537.15         395.09
          61.10         154.91       -1408.17        2285.94        2456.17         360.52
         153.62          20.31       -1394.15        2274.90        2495.26         375.51
         109.08         127.24          98.58         929.51        2285.58         234.67
         208.45         371.06         909.68        -292.50        2353.28         285.64
         554.71         152.77        -619.69        1136.35        2325.80         302.09
         210.32          59.85       -1175.21        2071.23        2383.78         295.02
         195.02         141.95        -569.36        1229.29        2553.07         362.34
         184.79         703.09       -1175.68        1500.13        2337.62         296.45
         754.37         219.44       -1395.99        1778.18        2193.96         170.67
         299.12          12.47        -512.75        1549.02        2202.10         128.61
         217.34          27.74         604.96         448.26        2251.65         181.75
         136.19         100.52        1662.70        -674.61        2325.17         266.83
         185.12         388.56       -1190.09        1695.69        2470.69         354.05
          10.29          13.58         849.98         493.00        2183.09         123.58
         310.25          97.60         742.64        -104.70        2504.19         388.51
         362.35          60.83         369.83         412.22        2344.73         278.71
         137.20         318.46        -498.84        1381.94        2211.21         132.43
         114.49         366.79        -745.74        1512.68        2301.75         253.74
         140.94          54.73        1203.86        -270.54        2420.99         334.76
         624.18         173.91        -908.65        1460.61        2199.93         151.00
         427.78         182.90        -745.41        1429.67        2255.05         192.57
         196.06         371.68        -408.60        1008.05        2382.76         296.47
         176.54          54.63       -1338.29        2263.31        2393.76         314.66
         270.15         247.58        -363.33        1080.05        2315.50         247.36
         112.00         243.54        -132.54         173.94        3153.04         627.69
         102.34           8.57         684.55        -211.02        2965.53         566.16
          15.12          41.36        1057.84         200.02        2235.62         176.94
         194.92          31.07         451.75         492.28        2379.92         302.49
          12.32         196.44        -978.83        1919.47        2400.56         323.43
          17.92          44.26         882.67        -151.81        2756.93         492.67
         293.91           7.36        -125.43        1180.84        2193.28         105.30
         315.38          73.95         655.63        -223.19        2728.19         479.08
          77.64         147.08       -1129.91        2198.40        2256.75         192.16
          45.81          37.49         795.72         104.86        2566.08         411.00
          18.03         389.79        -450.90         976.51        2616.54         426.24
         329.68         106.75       -1308.02        2090.16        2331.37         269.75
          68.93           9.25       -1282.43        1796.02        2958.18         572.85
         234.98          27.14        -503.29        1311.89        2479.25         367.91
         112.67          75.96        -461.50        1468.42        2354.41         288.29
         257.72         898.19         -86.45         212.87        2267.61         236.62
         284.48          44.28       -1377.14        2388.91        2209.43         184.40
          68.81         128.04        -897.75        1535.02        2715.83         477.05
         852.84         284.56       -1362.37        1406.72        2368.20         309.72
         422.43         228.67        -288.52         902.65        2284.72         241.89
          27.05         234.47        1810.51        -930.23        2408.17         318.61
         230.84         383.52       -1482.88        2009.53        2408.96         310.42
          32.60          13.81         392.62         830.85        2280.09         225.98
         478.52          81.54       -1429.50        1990.36        2429.03         329.68
         301.50          67.02       -1126.68        2125.35        2182.75         123.14
         199.54         140.75       -1437.82        2322.61        2324.88         250.84
         467.39          45.56        -334.15         710.95        2660.23         443.43
         433.73          23.77        -843.28        1435.28        2500.46         375.19
         440.23         104.80       -1447.10        2142.15        2309.88         242.04
         318.77           5.38        -307.01        1067.94        2464.89         338.32
         176.50         154.01       -1156.18        2102.61        2273.03         226.62
         109.49          26.49        -882.44        1968.17        2328.26         271.00
         136.25         913.59        -597.07         680.13        2417.04         322.94
          22.79         124.28        -847.21        1813.63        2436.47         324.53
          71.72         163.32        1229.09        -327.85        2413.67         307.60
         756.10         132.66        -163.08         622.78        2201.52         143.77
         170.01         378.15        1037.91        -264.69        2228.57         167.61
         244.17           0.81       -1398.46        2371.97        2331.48         278.60
          26.49         753.81          76.11         130.94        2562.62         412.79
         417.18         166.85        -682.01        1333.08        2314.88         242.71
          41.62         394.91       -1352.26        2247.64        2218.06         176.28
         603.89         100.16        -339.71         356.06        2829.54         529.94
         750.00          48.79        -579.46        1093.62        2237.00         181.25
          94.41         340.19       -1446.32        2253.44        2308.25         235.83
         235.50         158.59         545.79         203.51        2406.55         326.85
         287.36         685.71        -650.61         940.13        2287.37         235.77
         181.41         140.80        -890.71        1923.18        2195.27         162.68
          81.55         130.29         -17.02         486.00        2869.16         537.46
         629.99         164.92        -731.51        1248.88        2237.67         183.69
         173.19         200.42       -1363.24        2218.87        2320.73         257.89
         574.57         511.15       -1471.95        1654.09        2282.09         205.66
         337.62         112.63       -1333.82        2145.28        2288.24         228.51
         480.52          67.60          96.07          78.70        2827.08         516.21
          10.16         162.31       -1188.47        2380.89        2185.06         115.27
          29.04          30.48         626.81         612.99        2250.66         179.58
         454.44          59.32       -1151.24        1925.73        2261.68         211.10
         353.69         171.27       -1185.79        1968.78        2242.02         169.15
         127.38         947.16        1189.88       -1014.99        2300.54         235.86
         243.58         372.02         -17.22         293.39        2658.19         448.56
          37.21         372.35        -793.75        1749.82        2184.33         142.15
         299.98         160.49       -1267.22        1773.78        2582.93         413.39
         108.36         140.09       -1357.17        2418.41        2240.29         165.54
         311.33          74.25        -619.67        1605.97        2178.07          83.52
         401.13         297.77         310.05         265.56        2275.46         215.13
         149.96         398.02          32.79         187.20        2781.98         499.91
         321.17          68.62         359.99         535.70        2264.46         211.11
         336.61          97.91        -670.25        1009.67        2776.01         493.48
          15.12          61.79         336.07         883.97        2253.02         168.93
         126.29          20.60       -1135.40        2256.17        2282.31         231.85
           3.03          69.93        -844.41        2094.86        2226.56         177.53
          58.44          63.79        -573.95        1765.94        2235.76         183.77
         359.67           4.76        -709.45        1600.55        2294.44         243.42
          37.69           6.89       -1215.24        1892.61        2828.01         518.69
         137.35          12.75       -1116.94        2070.23        2446.58         346.76
          32.09         382.01       -1210.72        1961.67        2384.92         298.38
          10.05         876.06        -657.43        1075.50        2245.77         202.09
          32.28         374.90        1282.68        -573.19        2433.30         344.10
           6.09         351.20         166.40         734.28        2292.00         263.02
         171.24          57.01       -1214.98        2126.54        2410.13         313.13
         595.41         569.36        -750.66         923.73        2212.10         152.40
         328.38         526.20        -713.83        1003.42        2405.80         323.84
         258.58         132.03       -1396.48        1983.56        2572.28         403.31
         309.34         179.53       -1399.21        2200.72        2259.58         217.54
         149.47         421.26        -109.17         138.67        2949.72         563.65
