 #HCl ZPE (DMC): 1483.743446, WWW ZPE (DMC): 15602.536472
 #E_given = DMC ZPE + 3550 =21233.1103893624.
 #Dvib = Evib - ZPE
 #D0 = E_given - Erot(W) - Erot(HWW) - Evib(W) + Evib(HWW) -E_COM,E_COM=0
 
     #Erot(HCl)     #Erot(WWW)     #Dvib(HCl)     #Dvib(WWW)             D0         #Speed
         193.39         481.66       -1125.88        1321.17        2679.61         462.32
         209.20         111.74        -853.78        1630.59        2452.22         334.88
         195.32         345.53       -1420.39        1976.51        2452.99         344.11
         191.19         103.20        2276.01       -1237.87        2217.41         161.88
         186.15         232.17       -1279.89        2190.45        2221.08         182.66
         196.44          75.60        -131.04        1159.64        2249.32         199.24
         234.01         368.43        -436.47         460.39        2923.61         551.95
         199.78         551.80        -717.50        1024.39        2491.48         362.06
         252.85         154.94       -1447.07        2171.47        2417.77         322.62
         174.70          55.71       -1457.88        2549.17        2228.24         201.89
         201.28         608.33        -228.25         528.61        2439.99         335.87
         179.87          54.69        1386.90        -594.32        2522.82         387.96
         195.43         436.12       -1250.56        1344.99        2823.98         517.42
         241.31          10.19       -1382.73        2057.65        2623.53         433.31
         226.22          50.61       -1042.00        1983.61        2331.54         281.93
         187.44         250.11        -688.14        1373.54        2427.01         340.55
         196.06         371.68        -408.60        1008.05        2382.76         296.47
         176.54          54.63       -1338.29        2263.31        2393.76         314.66
         194.92          31.07         451.75         492.28        2379.92         302.49
         230.84         383.52       -1482.88        2009.53        2408.96         310.42
         199.54         140.75       -1437.82        2322.61        2324.88         250.84
         176.50         154.01       -1156.18        2102.61        2273.03         226.62
         244.17           0.81       -1398.46        2371.97        2331.48         278.60
         255.60         156.19       -1009.26        1516.10        2631.33         449.18
         223.78           4.50        -661.26        1523.40        2459.54         352.70
         166.24          18.89       -1416.86        2558.39        2223.29         170.33
         148.60         103.51         448.61         330.56        2518.69         378.66
         170.96         202.58        -194.86        1056.17        2315.11         252.35
         242.72          11.69        -569.55        1522.47        2342.64         282.95
         241.08         112.26       -1084.43        1788.19        2492.85         367.87
         218.34         126.63        -419.86        1360.52        2264.34         206.40
         213.17         215.91        -623.80        1207.26        2537.43         390.90
         233.37         467.83       -1023.70        1581.97        2290.48         230.66
         216.99         582.31        -335.25         305.89        2780.00         503.44
         203.60         107.92       -1420.55        2366.89        2292.09         234.49
         261.67          74.04        -682.89        1409.25        2487.88         369.17
         227.59          20.09       -1301.80        2191.07        2413.00         319.06
         185.11         209.35        -335.50        1143.47        2347.51         287.89
         188.48           8.27       -1248.32        2126.84        2474.69         355.78
         173.07         155.16         369.51         430.71        2421.50         336.17
         228.81         226.65       -1185.16        1961.66        2318.01         265.61
         215.22         347.14       -1108.64        1719.68        2376.55         316.63
         254.06         148.09         545.20         330.54        2272.09         229.08
         159.30         491.26        -973.61        1645.20        2227.80         184.59
         170.42          73.29       -1125.32        2120.91        2310.67         247.83
         206.67          15.02         916.04         168.89        2243.35         191.66
         248.62         113.55        -490.06        1192.26        2485.59         390.61
         235.03         244.05       -1240.28        2050.99        2260.19         190.83
         187.98         173.86        -970.25        1754.78        2403.57         323.92
         285.66         139.23        1708.11        -969.00        2385.96         305.57
         208.83          60.35        -212.95        1123.75        2369.99         302.94
         180.98           5.94        -874.57        1911.77        2325.84         272.40
         172.93          77.82       -1238.83        2146.32        2391.72         296.15
         218.41         531.38        -451.62         935.69        2316.10         250.76
         210.71         102.49        -279.87        1249.81        2266.81         214.73
         207.00           3.00       -1362.52        2400.42        2302.08         242.34
         161.23          42.13         583.11         352.47        2411.02         323.00
         198.36          15.98        -757.23        1695.82        2397.04         311.52
         217.89         380.78       -1082.47        1821.95        2211.81         179.49
         187.86         148.28        1640.89        -799.79        2372.73         296.02
         210.32          59.85       -1175.21        2071.23        2383.78         295.02
         195.02         141.95        -569.36        1229.29        2553.07         362.34
         184.79         703.09       -1175.68        1500.13        2337.62         296.45
         178.25         122.97       -1260.17        2162.69        2346.22         268.78
         212.76          91.35       -1427.00        1855.19        2817.65         517.12
         188.04          52.49         153.37         875.34        2280.72         218.23
         239.21         132.75        -101.07         369.09        2909.98         564.54
         165.53         127.31       -1004.94        2068.83        2193.23         109.54
         185.24         100.81       -1134.43        2081.68        2316.66         252.02
         156.17          67.09        -125.49        1218.74        2233.46         177.88
         156.66         399.27        -131.54         878.79        2246.79         225.45
         148.67         118.32        -705.70        1354.01        2634.68         432.02
         217.34          27.74         604.96         448.26        2251.65         181.75
         185.12         388.56       -1190.09        1695.69        2470.69         354.05
         258.73          96.73        -937.50        1822.85        2309.14         249.56
         221.53         106.41       -1308.43        2327.85        2202.57         171.67
         185.94          38.89        -100.98         826.48        2599.64         421.53
         185.32           2.15        -771.40        1827.72        2306.18         238.13
         170.15         355.47        -701.25        1249.41        2476.18         353.77
         207.75          31.76        -874.45        1615.31        2569.60         401.11
         217.47         422.06         179.31         450.20        2280.92         199.67
         170.19         133.85        -695.82        1569.00        2372.76         300.54
         253.57          28.93       -1178.07        2059.40        2386.15         315.07
         240.31          34.39        -846.09        1770.43        2350.92         279.11
         173.62         101.42       -1471.45        2526.56        2219.82         142.39
         214.94          43.15          86.72         349.11        2856.06         525.39
         285.10          21.46        1041.58        -272.34        2474.17         365.12
         281.58         310.62        -950.36        1694.84        2213.27         179.15
         204.97          12.66       -1212.17        1714.94        2829.58         518.88
         181.41         140.80        -890.71        1923.18        2195.27         162.68
         149.96         398.02          32.79         187.20        2781.98         499.91
         171.24          57.01       -1214.98        2126.54        2410.13         313.13
         258.58         132.03       -1396.48        1983.56        2572.28         403.31
         142.72         181.83        2913.84       -1921.40        2232.96         177.06
         248.76          22.98        -810.46        1896.29        2192.39         147.56
         187.88         314.84       -1189.45        1904.58        2332.11         266.65
         251.02         202.12        -823.32        1027.15        2892.98         543.27
         194.00         239.05        -933.95        1239.42        2811.45         510.27
         173.80         210.73        -937.80        1798.12        2305.13         236.89
         173.55          82.52       -1334.98        1920.97        2707.89         470.70
         198.77         260.95         713.27         153.89        2223.08         158.94
         219.42           0.79        -927.71        1886.15        2371.30         287.20
         183.05         379.32       -1483.07        2218.21        2252.48         190.11
         205.83          49.79       -1064.25        2090.50        2268.09         195.67
         180.90          36.47       -1459.78        2372.34        2420.03         335.82
         249.09          45.95        -897.70        1859.79        2292.83         234.79
         245.14          68.69       -1339.74        2062.69        2513.18         374.55
         162.60         372.75         954.32        -888.94        2949.22         561.50
         234.42         931.29          61.44        -293.38        2616.17         437.73
         295.98         179.44        -427.43         987.94        2514.04         382.30
         210.97         206.63        -965.41        1749.84        2347.92         287.16
         193.56         108.81        -540.81        1487.05        2301.35         238.17
         240.81         278.71         347.76        -381.89        3064.57         600.75
         248.79         325.43         563.13          71.58        2341.03         266.97
         269.28         242.86        -176.76         594.09        2620.47         445.97
         223.67         460.45         173.33         477.95        2214.56         174.30
         186.32          73.29       -1220.91        2064.41        2446.85         348.08
         181.53         497.50       -1397.67        1418.86        2849.73         530.40
         243.65          42.44        -658.95         620.54        3302.28         671.91
         190.21          63.98       -1243.12        2237.87        2301.01         248.66
         235.93          19.25       -1034.13        1485.81        2843.10         523.00
         204.96         144.29        -320.29        1273.44        2247.55         203.98
         184.15          96.74       -1142.03        2146.36        2264.74         219.19
         263.00          83.11        1806.36       -1161.73        2559.24         397.23
         175.12          38.60       -1337.96        2101.94        2572.26         413.33
         225.46          25.00       -1324.00        2389.90        2233.60         175.97
         195.34         140.83        2320.87       -1519.36        2412.30         330.32
         255.18         337.35         -42.27         419.68        2580.01         408.28
         295.81          73.61         849.84          10.97        2319.74         256.04
         215.87         241.58        -185.09         899.64        2377.95         293.31
         222.41          46.71        -191.47         968.55        2503.76         366.42
         187.22         179.95        -770.94        1615.55        2338.20         258.57
         168.49         209.06         187.42         769.90        2215.12         150.32
         167.93          28.83        -171.10        1317.37        2206.92         155.13
         233.26         475.18       -1092.89        1450.31        2484.09         363.70
         210.78           6.76        -698.76        1783.47        2247.72         189.16
         247.22         205.06        -422.87        1166.04        2354.51         290.83
         193.71          21.90         125.68         948.93        2259.75         219.22
         264.60         189.03       -1226.74        1963.61        2359.46         279.99
         183.63         154.05         543.22         165.90        2503.16         370.93
         231.39          18.90       -1172.74        2083.59        2388.82         308.52
         220.44          50.41       -1016.92        2037.51        2258.53         179.34
         232.53          73.67        -429.79        1230.62        2442.94         337.98
         263.38         198.02       -1063.59        1357.59        2794.56         507.80
         129.42         202.38        1666.91        -738.73        2289.99         252.66
         257.82          52.47       -1383.58        1647.95        2975.30         570.11
         188.85         157.86        -618.31        1586.41        2235.17         195.26
         229.71         470.61       -1021.21        1521.69        2349.14         293.24
         251.97         221.88        -507.33         962.54        2620.89         448.95
         277.55         164.58         174.52         537.91        2395.39         313.14
         178.86          74.19       -1363.92        2126.53        2534.30         385.08
         229.67         282.81        -789.40        1458.85        2368.02         295.50
         169.02         157.28         -96.39         946.63        2373.42         301.01
         229.66         115.31        -448.88         752.33        2901.53         538.37
         176.38         256.52       -1285.30        2065.17        2337.18         283.26
         176.19         202.42       -1314.56        2255.43        2230.50         167.66
         192.05          84.09         777.81          46.22        2449.77         360.89
         173.89          91.65        -542.50        1199.73        2627.21         437.18
         202.84          56.76        -802.77        1827.59        2265.54         200.35
         167.26         239.23        -783.39        1658.74        2268.11         225.44
         274.32          53.67       -1192.38        2173.65        2240.71         174.09
         189.98          20.56       -1470.56        2603.31        2206.68         168.94
         194.72          67.55       -1313.28        2239.44        2361.52         287.72
         227.97          32.96        1312.90        -242.74        2218.88         143.83
         220.28          10.65        -943.15        1908.33        2353.86         269.20
         162.51           4.68        -951.98        1600.23        2734.54         481.09
         223.35          12.93       -1103.04        1752.05        2664.66         445.39
         201.59          64.41        -380.03        1039.75        2624.23         438.89
         205.05         142.63        1476.24        -491.41        2217.43         193.14
         147.25          41.34         434.09         686.40        2240.90         196.33
         152.35         550.17        -212.90         754.69        2305.64         241.58
         163.56         121.23       -1357.38        1890.43        2732.13         492.27
         201.16         131.71           3.82         457.41        2755.86         485.31
         258.87          19.22       -1317.48        1939.77        2649.58         442.62
         222.80          83.24        -577.14        1278.59        2542.47         390.55
         234.04           6.12        -958.34        1824.35        2443.79         335.01
         220.76         411.48       -1128.07        1433.92        2611.87         425.10
         192.77          48.35        -889.32        1843.42        2354.75         286.99
         175.74          62.47        -766.24        1579.33        2498.64         369.87
         206.83         125.16       -1483.52        2230.08        2471.39         366.70
         219.67         136.07       -1040.07        1976.55        2257.73         211.83
         173.15          77.30       -1431.84        2457.15        2274.20         211.32
         167.38          51.77        -371.60        1111.11        2591.29         421.48
         185.60         165.87       -1420.12        2226.55        2392.08         301.68
         242.76         205.54        -192.55        1041.21        2253.01         187.06
         169.41         126.76         688.91         -42.59        2607.48         435.13
         205.98         211.44         647.91          27.40        2457.21         354.43
         236.83         396.10       -1092.43        1623.32        2386.14         320.80
         226.09         260.29        -764.93        1518.22        2310.29         257.03
         256.97         304.57        -898.03        1604.52        2281.94         214.19
         262.95         208.69         799.52          70.20        2208.58         152.72
         261.97          29.62       -1094.90        1931.25        2422.04         318.18
         193.69         144.62       -1452.27        1768.69        2895.24         535.16
         172.93         128.55       -1175.17        1773.84        2649.81         437.09
         178.76         308.52       -1290.32        1885.56        2467.42         351.30
         257.76           8.93       -1461.53        1911.68        2833.11         524.23
         247.70         165.68       -1448.90        1825.53        2759.94         497.60
         228.63          34.96         -64.20         986.74        2363.82         307.69
         298.12          93.85         362.87         188.14        2606.98         415.95
         174.30          19.63        -555.88        1541.88        2370.03         296.35
         164.85         326.96        -851.16        1150.42        2758.88         495.63
         220.07           4.95        -734.19        1258.54        2800.60         511.82
         179.63           8.53         -22.99         817.13        2567.65         412.28
         240.87          44.72       -1104.88        2188.50        2180.73         118.48
         175.74         132.62        -590.08        1552.37        2279.31         223.21
         178.32         224.32       -1384.26        2177.37        2354.20         302.99
         178.85         240.87       -1336.22        1548.97        2917.48         551.67
         174.08          61.93        -745.69        1647.04        2412.60         314.31
         186.56         214.50       -1422.34        1980.91        2590.33         409.99
         168.02          31.37       -1386.71        2417.16        2320.12         260.56
         197.02         101.28         117.48         837.58        2296.58         267.25
         206.18         439.49        -554.17         925.29        2533.17         406.52
         213.66         427.59         282.69         169.94        2456.07         354.27
         165.86          13.48         -48.41        1204.71        2214.30         166.39
         196.81         106.34        -288.79         297.12        3238.47         660.13
         203.73          85.45        -450.23        1372.28        2338.73         286.40
