    #Hard_water    #Hard_water
   #Erot(W)cm-1    #Speed(m/s)
         438.74         504.63
          52.41         628.63
          74.59         601.06
         950.03         597.62
         535.73         770.13
         257.98         265.76
         134.11         663.50
          62.61         332.20
         481.62         484.99
         159.29         719.64
         334.71         582.72
         189.69         436.36
          76.66         564.75
         522.75         483.66
         379.20         893.17
         322.98         236.52
         141.97         320.06
         637.78         556.37
        1125.53        1009.74
         255.00         312.50
          50.86         444.42
         138.55         447.50
         246.58         429.14
         137.93         471.06
          33.43         672.58
        1042.54         232.17
          77.61         699.71
         236.70         343.74
         324.93         451.21
         917.88         404.13
         440.02         530.01
         255.38         435.07
         470.41         541.30
         423.61         383.24
         145.68         581.46
          74.88         198.27
          31.66         312.81
         479.99         536.65
         270.25         512.14
         279.19         676.73
         318.30         392.91
         297.38         190.28
          98.27         718.41
         126.11        1114.45
         526.09         268.27
         370.86         226.41
         261.17         555.13
          43.73         521.44
         280.26         558.87
         316.92         478.53
         339.51         756.72
         815.22        1138.41
         323.10         472.04
         245.33         454.61
         794.05         320.87
         171.03         740.75
         206.73         446.34
         383.95         771.76
         293.39         434.66
          33.65         258.42
         357.59         517.01
         491.27         706.61
         395.67         399.74
         472.23         601.57
         280.02         396.60
         238.98         188.80
         251.08         292.41
         502.56         160.62
          28.18         590.01
          14.65         412.66
         299.55         292.93
         943.84         488.99
          84.04         403.48
         949.71         480.17
         416.73         418.05
         207.09         288.43
          19.75         342.36
         209.73         354.16
         182.42         764.79
         257.90         605.75
         129.08         348.22
         100.62         341.83
         326.25         446.76
         509.04         318.90
        1203.37         487.51
         176.36         454.18
         457.12         508.19
         486.59         409.07
         509.76         473.32
         391.53         430.82
         455.57         343.23
         877.78         209.97
         446.49         379.45
         153.54         417.76
         573.97         823.14
         377.27         824.74
         810.94         493.92
         455.62         396.22
         282.05         436.61
         496.03         361.94
         377.41         811.08
         850.51         590.45
         231.14         401.04
         177.09         518.61
         180.54         612.33
         202.23         214.41
          62.77         289.18
         530.69         880.92
        1092.46         561.29
          52.54         288.80
         285.19         409.79
         180.53         560.39
         293.04         493.57
         360.37        1103.92
         403.89         690.87
         163.96         622.79
         476.56         335.41
         368.98         228.53
         153.01         769.27
           5.47         325.96
         485.86         561.50
         393.59         484.25
         265.20         625.55
         712.09         637.22
          55.47         903.78
         388.79         555.96
         149.42         558.41
          32.23         613.32
         141.76        1445.53
          98.72         260.52
         181.95         520.37
         252.16         227.20
         530.68         441.22
         165.30         624.88
        1157.13         601.10
         459.36         772.69
         332.25         257.47
         211.22         779.19
         166.76         436.46
         249.18         630.57
         105.18         248.84
         262.32         433.21
           7.94         297.36
         189.68         342.33
         209.81         289.50
         152.12         711.62
         277.50         434.39
         230.17         349.82
         565.14         381.84
         551.31         275.87
         210.96         530.84
         149.25         524.53
         208.67         686.80
         380.26         609.77
         646.53         442.29
         337.44         471.12
        1305.56         376.59
         261.11         346.70
          20.23         556.90
          63.46        1039.96
         257.14         368.06
          78.53         187.30
         119.54         706.28
         273.16         598.13
         261.57         257.90
         732.46         504.07
          40.04         533.72
         101.55         664.88
         182.12         562.93
         411.57         236.08
         475.04         915.40
         998.83         170.49
          51.56         617.03
         290.81         670.32
         761.47         362.69
         235.39         448.20
          89.15         658.25
         235.66         423.03
         136.67         151.73
          52.47         269.65
          85.10         740.26
          86.29        1017.89
         365.01         189.79
          10.82         668.76
         491.85         774.23
         420.43         616.71
         276.72         742.67
         287.36         227.00
         473.94         805.13
         384.00         944.17
         105.32         540.91
         397.59         847.41
         309.12         264.50
         813.78         527.34
        1030.71         621.85
         465.45         394.27
         615.30         336.15
         396.82         316.39
        1017.08         315.55
         233.48         342.03
         263.23         474.45
          95.27         402.91
         634.30         199.55
         282.54         792.01
         537.33         626.99
         312.69         452.59
         185.66          90.72
         703.81         360.96
         362.36         457.40
         186.23         843.86
         183.03         123.13
         668.61         393.70
         546.57         344.33
         446.08         719.98
         317.34         479.63
         135.24         614.78
         418.33         369.89
          99.75         396.52
         368.15         410.16
         133.95         565.00
        1053.72         877.58
          22.20         552.94
        1064.33         381.66
         158.59         367.44
        1010.40         325.27
          68.90         560.01
         393.94         676.96
         356.34         557.20
         403.61         242.66
         336.14         232.43
         199.57        1082.03
         200.40         589.21
        1168.68         602.65
         195.34         565.93
         339.86         392.79
          99.32         420.60
          27.55         687.42
        1401.15         434.57
         205.98         345.24
         116.91         273.04
         146.06         220.33
         180.23         637.40
         609.42         388.02
        1181.88         429.99
          49.30         162.82
         301.94         495.56
         291.62         557.06
         372.42         583.02
         415.44          95.55
         527.87         596.76
          98.35         495.65
         192.00         595.01
         393.26         185.55
         621.06         467.51
         260.07         518.03
         477.38         547.79
         200.07         266.10
          90.32         420.66
         171.39         398.25
         190.41         411.99
         139.47         414.48
         186.39         636.57
          81.12         527.77
         219.87         352.02
         242.75         443.96
          52.45         561.88
         278.51         525.47
         134.02         781.56
         233.09        1061.32
         167.46         589.66
         247.42         578.14
         302.90         604.11
         160.84         699.88
         119.67         821.07
         143.00         286.44
         320.53         436.72
         226.23         433.64
         293.91         505.05
          17.16         641.85
         145.38         638.48
         601.12         108.69
         594.33         353.03
          87.08         289.21
        1051.71        1089.81
         302.89         152.42
         177.52         360.31
          72.40         685.76
         535.02         717.88
          72.07         217.48
         281.24         851.90
        1244.10         452.83
         480.69        1152.58
         318.30         658.15
         131.93         280.57
         423.45         679.60
         188.06         552.97
          65.56         355.81
         212.30         457.90
         217.22         249.04
         382.19         502.37
         180.61         284.79
         522.43         622.76
         109.40         555.55
         153.58         221.91
         758.32         473.80
          71.15         583.06
         336.83         523.79
         506.97         390.22
         575.77         630.71
         252.45         309.16
         193.95         215.61
          13.03         358.62
          71.67         253.97
         706.88         897.10
         136.13         669.84
          95.82         672.34
         583.96         263.74
         183.27         805.57
         430.53         277.60
         676.23         814.74
          13.05         361.05
         146.90         544.82
         104.84         316.04
         916.92         402.65
          90.76         703.02
         180.36         216.35
          21.37         429.21
         489.87         203.80
         300.83         922.55
         329.82         263.90
         340.39         563.22
         317.31         516.83
          82.95         856.67
         170.31         656.66
         483.82         249.74
          97.73         626.38
         192.21         450.52
         433.43         400.50
         157.03         212.13
         270.13         518.02
         413.17         436.47
         268.65         267.80
         400.66         373.73
         305.92         800.06
         310.70         421.41
         842.95         562.54
         250.86         802.89
         802.86         238.73
         304.39         204.27
          59.05         317.21
         251.82         375.09
        1294.29         680.31
         158.25         568.38
          75.82         396.82
         148.50         328.90
         249.61         840.41
         281.73         454.65
        1072.26         547.98
         274.16         283.79
         508.30         417.47
         437.73         656.08
         478.57         278.74
         602.66         527.60
         218.27         215.11
         132.82         407.95
         797.61         751.10
         712.13         238.08
         721.93         785.34
         518.66         201.53
        1059.63         808.05
         355.16         456.95
         894.66         363.65
         317.22         187.94
         174.69         183.98
         226.90         276.67
         153.43         200.82
         372.15         473.13
         572.72         407.04
        1416.36         569.17
        1221.47         576.53
         838.56         455.42
         151.06         618.64
         795.12         806.64
          81.28         376.14
         669.78         382.96
         428.84         527.03
          46.23         666.81
         379.04         315.37
        1279.42         518.46
         466.41         337.72
         482.81         584.20
         308.88         381.37
          66.51         391.21
         839.83         274.73
         610.03         305.23
         266.78         741.66
         180.25         372.75
         142.78         296.67
         497.77         548.39
         145.56         416.87
         144.54         721.12
         394.01         338.62
         337.20         388.05
         301.53         292.45
          80.37         503.39
         693.82         341.73
          63.63         374.48
         129.69         526.61
         769.44         629.21
         559.76         682.58
         254.62         474.83
         826.40         595.54
         274.92         450.17
         270.24         313.22
         391.01         481.00
        1995.93         397.02
         243.00         569.07
         230.38         401.20
         482.06         625.43
         614.64         322.00
          37.35         384.24
         447.97         525.80
        1457.58         299.06
        1559.17         551.59
         466.67         707.10
         506.12         495.32
         122.92         406.59
          46.99         356.47
         410.79         575.17
         414.13         182.99
         220.27         630.03
         299.38         631.93
         107.30         429.38
         321.96         797.36
         311.45         567.42
         416.87         238.86
         350.64         604.52
         331.07         678.28
         145.54         487.76
         293.97         159.93
         188.31         307.00
         679.15         175.77
         378.77         305.21
         803.61         222.92
         121.24         609.77
         318.87         275.70
         257.42         334.73
         498.14         104.96
         539.79         484.89
         130.77         401.07
         421.50         618.25
         321.35         754.01
         336.62         541.46
          57.43         467.94
        1188.13         386.71
         300.55         553.74
          28.91         577.85
        1044.88         246.92
         432.08         754.01
         961.88         644.82
         295.82         394.67
          75.45         432.90
         241.80         302.87
         471.60         343.11
         276.65         279.96
         704.43         335.28
         196.85         402.27
         433.83         190.80
         275.83         611.95
          48.70         341.39
         188.66         371.25
         144.57         492.98
          30.30         438.32
         579.05         455.92
         316.37         618.38
         300.08         323.95
         106.12         510.06
         385.50         507.69
         150.16         494.30
         289.14         788.80
         352.67         183.68
         295.94         413.11
         326.42         569.12
         157.78         768.57
          50.87         378.26
         135.75         234.97
         371.89         256.18
         601.69         630.98
         151.14         315.02
         262.25         432.39
         271.26         759.32
         113.54         418.24
         362.11         651.74
         482.55         684.75
          62.18         604.44
         353.69         372.31
         304.99         330.49
         884.60         648.94
         810.78         571.86
         162.95         479.60
         277.39         588.00
         179.26         429.40
         125.47         450.59
         149.35         340.88
         460.14         319.40
         320.59         600.67
         550.31         158.37
         625.70         605.60
         170.31         629.53
         539.91         217.54
          50.02         164.17
         360.37         356.08
          99.03         394.19
         184.19          54.84
         280.63         804.37
          61.95         528.72
         451.35         445.10
         278.73         403.92
        1105.72         745.83
         214.58         750.54
         202.53         903.66
         288.86         282.29
          38.75         170.67
         484.60         446.56
         283.37         477.84
         222.26         414.25
         655.84         447.10
         381.02         547.62
         929.81         572.22
         323.10         392.15
        1436.43         641.84
         135.20         358.86
         588.92         339.74
         168.73         684.34
         252.92         418.72
         476.08         503.43
          82.64         230.77
         178.67         385.42
         178.67         336.53
          81.19         690.46
          33.52         613.08
         180.69         554.28
         796.24         199.34
         537.93         399.15
          55.45         859.71
        1195.45         405.59
          28.51         611.07
          61.07         237.12
         339.08         377.17
         109.98         770.38
          97.98         784.45
          73.63         387.06
         435.27         815.81
         216.69         503.49
         349.92         532.55
         597.72        1231.64
          97.98         238.97
         365.12         336.89
         445.53         122.96
        2112.98         356.42
         416.32         298.59
         188.08         141.56
         200.87         706.14
         128.45         668.90
         399.84         898.54
          45.46         781.25
         325.06         615.05
        1404.30         386.84
         443.70         443.82
         305.86         142.96
         448.35         431.03
          53.30         370.06
         282.88         323.14
         751.17         408.61
          87.62         456.47
         105.33         539.93
         455.99         611.19
         941.50         484.05
         646.26         238.96
         430.15         846.79
         124.08         512.12
         374.54         570.52
         177.92         620.35
         155.49         634.31
         211.75         378.72
         178.07         226.21
        1241.81         119.09
          57.98         660.86
          68.46         585.05
         938.94         406.27
         359.25         488.23
         552.38         605.57
         398.05         638.15
         448.70         942.60
          69.94         275.74
         197.16         573.14
          47.29         524.06
         124.72         328.21
         297.60         356.14
         356.91         509.18
         187.41         549.85
         525.22         364.98
         121.05        1080.87
         472.95         533.59
          57.61         972.48
         883.08         200.53
         782.59         634.34
         316.91         537.78
         193.08         890.76
          45.42         245.19
         491.03         267.42
         124.33         534.88
         203.92         149.06
         142.67         415.31
         466.28         824.01
          40.76         486.55
         374.86         553.10
         732.70         262.86
         777.18         186.44
         234.67         121.75
         597.21         214.98
          93.23         626.12
         194.21         180.93
         397.55         275.05
          90.93         425.34
         997.16         320.23
         230.93         364.39
         110.81         395.51
         306.95         487.44
         393.80         374.19
         426.93         665.78
          57.96         492.11
         424.33         286.53
         314.20         636.86
         266.01         319.28
         226.84         142.62
          96.31         748.77
          59.97         291.51
         343.09         702.29
         143.11        1129.30
         288.00         703.75
         177.98         287.50
         287.88         545.07
