    #Hard_water    #Hard_water
   #Erot(W)cm-1    #Speed(m/s)
         438.74         504.63
          52.41         628.63
          74.59         601.06
         950.03         597.62
         535.73         770.13
         257.98         265.76
         134.11         663.50
          62.61         332.20
         481.62         484.99
         159.29         719.64
         334.71         582.72
         189.69         436.36
          76.66         564.75
         522.75         483.66
         379.20         893.17
         322.98         236.52
         141.97         320.06
         637.78         556.37
        1125.53        1009.74
         255.00         312.50
          50.86         444.42
         138.55         447.50
         246.58         429.14
         137.93         471.06
          33.43         672.58
        1042.54         232.17
          77.61         699.71
         236.70         343.74
         324.93         451.21
         917.88         404.13
         440.02         530.01
         255.38         435.07
         470.41         541.30
         423.61         383.24
         145.68         581.46
          74.88         198.27
          31.66         312.81
         479.99         536.65
         270.25         512.14
         279.19         676.73
         318.30         392.91
         297.38         190.28
          98.27         718.41
         126.11        1114.45
         526.09         268.27
         370.86         226.41
         261.17         555.13
          43.73         521.44
         280.26         558.87
         316.92         478.53
         339.51         756.72
         815.22        1138.41
         323.10         472.04
         245.33         454.61
         794.05         320.87
         171.03         740.75
         206.73         446.34
         383.95         771.76
         293.39         434.66
          33.65         258.42
         357.59         517.01
         491.27         706.61
         395.67         399.74
         472.23         601.57
         280.02         396.60
         238.98         188.80
         251.08         292.41
         502.56         160.62
          28.18         590.01
          14.65         412.66
         299.55         292.93
         943.84         488.99
          84.04         403.48
         949.71         480.17
         416.73         418.05
         207.09         288.43
          19.75         342.36
         209.73         354.16
         182.42         764.79
         257.90         605.75
         129.08         348.22
         100.62         341.83
         326.25         446.76
         509.04         318.90
        1203.37         487.51
         176.36         454.18
         457.12         508.19
         486.59         409.07
         509.76         473.32
         391.53         430.82
         455.57         343.23
         877.78         209.97
         446.49         379.45
         153.54         417.76
         573.97         823.14
         377.27         824.74
         810.94         493.92
         455.62         396.22
         282.05         436.61
         496.03         361.94
         377.41         811.08
         850.51         590.45
         231.14         401.04
         177.09         518.61
         180.54         612.33
         202.23         214.41
         500.33         239.19
         102.68         678.70
         101.23         704.34
         446.37         473.24
         106.09         622.77
         547.38         718.11
         231.57         200.79
         281.95         750.00
         133.94         277.26
         445.32         279.47
         445.59         633.04
         307.18         338.49
          71.93         517.34
         550.66         427.20
          26.09         391.05
         188.35         282.34
         679.23         155.41
          94.88         423.84
         331.54         572.33
         364.09         151.55
         161.83         236.44
         343.61         894.04
         297.70         645.93
         585.55         548.89
         538.25         126.25
         242.36         243.36
         798.05        1115.58
         821.60         808.36
         453.24         457.53
         764.23         458.18
         349.50         609.12
          25.15         587.89
         527.15         635.48
         258.17        1109.48
         270.49         445.50
         607.48         858.91
         255.25         354.65
          62.77         289.18
         530.69         880.92
        1092.46         561.29
          52.54         288.80
         285.19         409.79
         180.53         560.39
         293.04         493.57
         360.37        1103.92
         403.89         690.87
         163.96         622.79
         476.56         335.41
         368.98         228.53
         153.01         769.27
           5.47         325.96
         485.86         561.50
         393.59         484.25
         265.20         625.55
         712.09         637.22
          55.47         903.78
         388.79         555.96
         149.42         558.41
          32.23         613.32
         141.76        1445.53
          98.72         260.52
         181.95         520.37
         252.16         227.20
         530.68         441.22
         165.30         624.88
        1157.13         601.10
         459.36         772.69
         332.25         257.47
         211.22         779.19
         166.76         436.46
         249.18         630.57
         105.18         248.84
         262.32         433.21
           7.94         297.36
         189.68         342.33
         209.81         289.50
         152.12         711.62
         277.50         434.39
         230.17         349.82
         565.14         381.84
         551.31         275.87
         210.96         530.84
         149.25         524.53
         208.67         686.80
         380.26         609.77
         646.53         442.29
         337.44         471.12
        1305.56         376.59
         261.11         346.70
          20.23         556.90
          63.46        1039.96
         257.14         368.06
          78.53         187.30
         119.54         706.28
         273.16         598.13
         261.57         257.90
         732.46         504.07
          40.04         533.72
         101.55         664.88
         182.12         562.93
         411.57         236.08
         475.04         915.40
         998.83         170.49
          51.56         617.03
         290.81         670.32
         761.47         362.69
         235.39         448.20
          89.15         658.25
         235.66         423.03
         136.67         151.73
          52.47         269.65
          85.10         740.26
          86.29        1017.89
         365.01         189.79
          10.82         668.76
         491.85         774.23
         420.43         616.71
         276.72         742.67
         287.36         227.00
         473.94         805.13
         384.00         944.17
         105.32         540.91
         397.59         847.41
         309.12         264.50
         813.78         527.34
        1030.71         621.85
         465.45         394.27
         615.30         336.15
         396.82         316.39
        1017.08         315.55
         233.48         342.03
         263.23         474.45
          95.27         402.91
         634.30         199.55
         282.54         792.01
         537.33         626.99
         312.69         452.59
         185.66          90.72
         703.81         360.96
         362.36         457.40
         186.23         843.86
         183.03         123.13
         668.61         393.70
         546.57         344.33
         446.08         719.98
         317.34         479.63
         135.24         614.78
         418.33         369.89
          99.75         396.52
         368.15         410.16
         133.95         565.00
        1053.72         877.58
          22.20         552.94
        1064.33         381.66
         158.59         367.44
        1010.40         325.27
          68.90         560.01
         393.94         676.96
         356.34         557.20
         403.61         242.66
         336.14         232.43
         199.57        1082.03
         200.40         589.21
        1168.68         602.65
         195.34         565.93
         339.86         392.79
          99.32         420.60
          27.55         687.42
        1401.15         434.57
         205.98         345.24
         116.91         273.04
         146.06         220.33
         180.23         637.40
         609.42         388.02
        1181.88         429.99
          49.30         162.82
         301.94         495.56
         291.62         557.06
         372.42         583.02
         415.44          95.55
         527.87         596.76
          98.35         495.65
         192.00         595.01
         393.26         185.55
         621.06         467.51
         260.07         518.03
         477.38         547.79
         200.07         266.10
          90.32         420.66
         171.39         398.25
         190.41         411.99
         139.47         414.48
         186.39         636.57
          81.12         527.77
         219.87         352.02
         242.75         443.96
          52.45         561.88
         278.51         525.47
         134.02         781.56
         233.09        1061.32
         167.46         589.66
         247.42         578.14
         302.90         604.11
         160.84         699.88
         119.67         821.07
         143.00         286.44
         320.53         436.72
         226.23         433.64
         293.91         505.05
          17.16         641.85
         145.38         638.48
         601.12         108.69
         594.33         353.03
          87.08         289.21
        1051.71        1089.81
         302.89         152.42
         177.52         360.31
          72.40         685.76
         535.02         717.88
          72.07         217.48
         281.24         851.90
        1244.10         452.83
         480.69        1152.58
         318.30         658.15
         131.93         280.57
         423.45         679.60
         188.06         552.97
          65.56         355.81
         212.30         457.90
         217.22         249.04
         382.19         502.37
         180.61         284.79
         522.43         622.76
         109.40         555.55
         153.58         221.91
         758.32         473.80
          71.15         583.06
         336.83         523.79
         506.97         390.22
         575.77         630.71
         252.45         309.16
         193.95         215.61
         354.34         168.79
          90.94         697.25
         302.46         215.23
         371.86         674.36
         666.63         459.72
         949.93         933.07
          13.03         358.62
         278.23         273.19
         167.84         382.91
         110.11        1059.34
         811.30         802.31
          34.47         418.98
         291.29         553.65
          32.43         338.91
         602.92         519.55
         276.72         137.77
         167.65         488.10
         754.71         372.03
         109.12         944.65
         608.98         445.23
         792.89         608.56
         923.88         596.27
         147.67         156.02
         340.64         245.23
         247.57         467.91
          75.48         282.80
         129.70         465.73
         887.82         358.50
         113.34        1042.02
        1171.01         910.81
         287.67         293.39
        1360.98         418.06
         507.68         253.39
         218.05         491.69
         271.99         145.25
         389.42         409.72
          42.02         328.05
         448.57         755.79
        1285.71         525.72
         214.29         675.49
         656.49         957.99
         384.98         393.46
         926.80         172.45
        1123.40         397.19
         544.22         572.52
         565.94         709.10
          71.67         253.97
         706.88         897.10
         136.13         669.84
          95.82         672.34
         151.25         466.78
         463.67         579.25
          77.47         418.55
         327.51         355.39
          50.83         432.29
        1306.74         324.35
         583.96         263.74
         183.27         805.57
         430.53         277.60
         676.23         814.74
          68.37         532.47
         538.85         687.35
         168.82         354.60
         170.43         567.44
         483.05         177.45
         692.85         112.39
          76.70         484.42
          71.88         605.87
         601.87         868.70
         325.42         388.42
         905.61         514.55
         473.11         916.14
         449.25         189.63
         131.34         357.04
          13.05         361.05
         146.90         544.82
         104.84         316.04
         161.56         227.17
         191.15         185.98
         227.08         583.04
         916.92         402.65
         244.90         420.36
         475.67         165.89
         142.66         293.04
           5.96         230.34
         312.67         378.86
         362.23         944.47
         485.79         396.00
         222.86         935.40
         622.84         323.79
         980.77         205.66
         261.85         244.69
         253.70         209.55
         593.47         331.86
         225.70         608.85
          41.54         490.30
         159.45         566.48
        1598.87         236.55
         266.69         637.66
         639.29         617.71
         312.94         380.18
         396.95         813.63
         406.21         647.18
          90.76         703.02
         180.36         216.35
          21.37         429.21
         489.87         203.80
         300.83         922.55
         329.82         263.90
         161.64         644.53
         351.45         334.96
         218.92         250.32
         330.90         609.49
         271.21         624.02
         712.55         322.00
         157.04         728.19
        1003.53         452.66
         738.66         200.37
         273.78         516.11
         159.08         984.91
         213.93         568.01
         516.45         745.14
         386.94         522.51
         313.74         465.78
         606.33         489.87
         340.39         563.22
         317.31         516.83
          82.95         856.67
         170.31         656.66
         483.82         249.74
          97.73         626.38
          53.97         673.50
         352.70         769.62
          41.25         374.49
         443.54         506.19
         415.94         442.19
        1017.15         345.61
         236.86         432.50
         735.91         634.85
         155.63         508.72
         134.57         464.89
         615.78         440.01
         222.30         805.35
         192.21         450.52
         433.43         400.50
         157.03         212.13
         270.13         518.02
         413.17         436.47
          91.00         122.93
         984.48         426.30
        1725.27         577.35
         264.21         507.95
         710.42         547.01
         203.32         336.66
         123.12         489.07
         413.16         652.49
         804.37         733.40
         214.82         456.06
         132.66          72.87
         338.71         342.46
         354.25         335.85
          49.30         533.38
         109.24         416.78
         117.88         236.23
         989.84         414.43
         150.22         827.50
          60.26         448.99
         741.93         446.61
         143.22         668.28
         108.06         494.70
         396.40         300.21
         794.95         677.53
         969.09         490.12
         230.55         428.33
         226.08         715.91
         268.65         267.80
         108.25         537.67
         136.34         358.19
         218.99         264.66
        1384.90         174.71
          37.22         402.22
         343.94         639.86
         505.12         217.02
         765.03         397.22
         243.89         331.41
         316.14         262.54
         369.06         672.87
         779.78         488.27
         250.53         520.12
         180.08         594.43
         229.11         344.45
         237.08         314.00
         214.04         325.31
         876.83         400.60
        1307.18         306.59
         960.62         439.22
         742.98         165.27
         186.27         483.37
         230.45         592.44
         229.08         489.37
         251.26         579.20
         400.66         373.73
         305.92         800.06
         310.70         421.41
         842.95         562.54
         250.86         802.89
         802.86         238.73
         417.76         200.23
         161.92         394.87
         164.41         227.81
         515.99         712.75
         418.64         432.37
         199.55         776.61
         138.91         619.04
         202.94        1023.59
         969.59         303.66
          98.76         729.24
         588.51         636.49
         593.38         376.65
         716.04         309.38
         389.67         341.04
         212.31         154.17
          92.44         483.51
         384.21         457.69
         401.42         145.57
         711.42         383.66
         835.19         430.33
         505.42         364.84
         166.82         170.28
          94.68         400.67
          65.26         546.16
         179.24         588.83
         280.76         300.60
         478.29         688.96
        1493.04         312.44
         230.22         899.47
         158.89         279.63
          53.74         185.86
         599.41         671.00
         432.50         540.22
         356.78         398.12
          63.98         665.26
         337.48         331.84
         683.49         848.94
         285.03         198.99
         413.30         506.92
         251.15         226.19
         117.31         476.18
         244.50         786.38
         588.72         741.45
         189.42         565.16
          29.74         577.98
         471.91         302.98
         159.74         332.77
         678.45         406.88
           7.43         554.83
         141.83          96.67
         788.58         644.67
         381.33         524.36
         158.89         359.74
         532.18         371.79
         129.34         821.94
         774.88         667.59
         257.76         393.81
          61.56         394.97
         366.36         305.56
          91.55         624.81
         583.66         431.45
         165.26         672.23
         649.69         753.66
          70.56         227.42
         315.85         324.63
         469.47         348.25
          91.87         488.02
         679.37         592.69
         304.39         204.27
          59.05         317.21
         313.72         393.89
         585.62         342.23
         160.43         197.48
         663.43         496.93
         883.76         560.41
         246.26         416.14
         496.20         924.90
          27.57         215.11
         307.40         665.30
         294.01         545.49
          71.84         325.14
        1096.10         846.79
         913.92         232.51
         272.12         842.05
         464.98         330.72
         432.03         446.53
         361.39         816.05
         853.63         677.58
